TimeStamp,Delta_TP9,Delta_AF7,Delta_AF8,Delta_TP10,Theta_TP9,Theta_AF7,Theta_AF8,Theta_TP10,Alpha_TP9,Alpha_AF7,Alpha_AF8,Alpha_TP10,Beta_TP9,Beta_AF7,Beta_AF8,Beta_TP10,Gamma_TP9,Gamma_AF7,Gamma_AF8,Gamma_TP10,RAW_TP9,RAW_AF7,RAW_AF8,RAW_TP10,AUX_RIGHT,Accelerometer_X,Accelerometer_Y,Accelerometer_Z,Gyro_X,Gyro_Y,Gyro_Z,HeadBandOn,HSI_TP9,HSI_AF7,HSI_AF8,HSI_TP10,Battery,Elements
2020-07-10 14:46:46.115,1.126188546433506,1.455739744244638,0.8040301802820808,0.9920027925476869,0.6860007928224721,0.7618901515967758,0.373539278766868,0.5337274968126889,1.226680419688012,0.3647414549297432,0.5569246973443237,1.048764705692967,0.9968163124733781,0.8924986803619718,0.9697817053921807,1.045941173949245,0.7090866930874296,0.6806442184641951,1.380204943308642,0.8758030396214788,821.1721611721612,529.047619047619,793.3699633699634,811.9047619047619,703.919413919414,0.054504,-0.070007,0.999573,3.745880,-5.166473,0.314026,1,1,1,1,1,95.000000
2020-07-10 14:46:46.618,0.7960299635612802,1.455739744244638,0.9828263018876557,0.9776221831309853,0.1707955521932167,0.7618901515967758,0.2443122971532965,0.4409392804296796,1.206337042553857,0.3647414549297432,0.5569246973443237,1.102554552978496,0.8862381519901835,0.8924986803619718,0.9310355002084141,1.062624181156528,0.5642616298820283,0.6806442184641951,1.364978980387231,0.8806371575103813,821.5750915750916,1140.695970695971,796.1904761904763,869.92673992674,1160.03663003663,0.072266,-0.074158,0.998901,3.738403,-4.381409,0.014954,1,1,1,1,1,60.000000
2020-07-10 14:46:47.111,1.297684676727705,1.455739744244638,1.457301024918738,1.335572578610239,0.2551371553801174,0.7618901515967758,0.394979108361573,0.57261785761067,0.9885993947502482,0.3647414549297432,0.7143231570113884,1.423085260104529,0.7814012301224206,0.8924986803619718,0.7786916819048492,1.145532209311013,0.5717683749613022,0.6806442184641951,1.33076838549522,0.8800451660074274,810.6959706959707,973.4798534798535,791.3553113553114,796.5934065934066,638.6446886446887,0.063965,-0.084717,0.994141,3.760834,-4.867401,-0.074768,1,1,1,1,1,60.000000
2020-07-10 14:46:47.622,1.355226849358317,1.455739744244638,1.475588701912888,1.326761304389364,0.2991571288624439,0.7618901515967758,0.426185020577822,0.7363010974567169,0.9654374004553083,0.3647414549297432,0.6924129566391207,1.471164061028919,0.7878340675286695,0.8924986803619718,0.7689519182465578,1.23102028920488,0.6234151600558955,0.6806442184641951,1.309718202442699,0.9197615615275923,786.5201465201466,899.3406593406594,767.985347985348,791.7582417582418,714.7985347985348,0.069763,-0.081116,0.995178,3.947754,-4.052429,0.545807,1,1,1,1,1,60.000000
2020-07-10 14:46:48.121,1.298295004768986,1.455739744244638,1.413681932060489,1.321521277431471,0.318901999001108,0.7618901515967758,0.4386503028044493,0.7334214611188423,0.9581587898815476,0.3647414549297432,0.6702137246382339,1.477175154104866,0.7580844007620193,0.8924986803619718,0.6575312824486659,1.251566056937255,0.6167574728185761,0.6806442184641951,1.297215302277032,1.011514848056182,784.5054945054945,853.8095238095239,763.5531135531136,778.8644688644689,1091.538461538462,0.085449,-0.082153,0.999939,3.730927,-4.134674,1.009369,1,1,1,1,1,60.000000
2020-07-10 14:46:48.622,0.8787414239642908,1.455739744244638,0.8806605547702979,0.9877391208848737,0.3301737993637872,0.7618901515967758,0.2794679558689174,0.6456768082893904,0.7728101669553862,0.3647414549297432,0.5204156864051899,1.330970767197128,0.6536025000771685,0.8924986803619718,0.6997419023428861,1.210433543691449,0.5492817977154262,0.6806442184641951,1.321656254529994,1.060899200359534,791.7582417582418,860.2564102564103,757.1062271062272,782.893772893773,689.0109890109891,0.074890,-0.081177,0.998047,4.216919,-3.843079,0.224304,1,1,1,1,1,60.000000
2020-07-10 14:46:49.110,0.8505020759977319,1.455739744244638,0.6264282578616155,0.8957892779125212,0.585947262602445,0.7618901515967758,0.01192905487194273,0.5544704505172114,0.7341512580149568,0.3647414549297432,0.5557909311380111,1.304157366738792,0.6100621957332479,0.8924986803619718,0.6440670025404623,1.141015868827363,0.5212940298623169,0.6806442184641951,1.365045600293233,1.050296467027745,808.6813186813187,803.4432234432235,794.981684981685,801.4285714285714,717.6190476190476,0.087830,-0.084412,0.992798,2.930908,-4.000092,-0.523376,1,1,1,1,1,60.000000
2020-07-10 14:46:49.610,1.103979379754397,1.455739744244638,0.7275175989732289,1.153264277656747,0.6203355731256917,0.7618901515967758,-0.0555383184668966,0.6314849112630144,0.7407076987692539,0.3647414549297432,0.5713361959523612,1.316812231061759,0.6268041906695919,0.8924986803619718,0.6604082868665976,1.172515456357126,0.5431840881282111,0.6806442184641951,1.388742915924992,0.9128414803404253,789.7435897435897,823.5897435897436,805.4578754578755,787.3260073260074,1038.351648351648,0.070679,-0.078064,0.999023,5.555267,-2.901001,-0.358887,1,1,1,1,1,60.000000
2020-07-10 14:46:49.810,,,,,,,,,,,,,,,,,,,,,,,,,,,,,,,,,,,,,,/muse/elements/jaw_clench
2020-07-10 14:46:49.988,,,,,,,,,,,,,,,,,,,,,,,,,,,,,,,,,,,,,,/muse/elements/jaw_clench
2020-07-10 14:46:50.110,1.305952412902705,1.455739744244638,0.9037419113843369,1.380676934085703,0.6346695665395324,0.7618901515967758,0.1191175616905943,0.7870689773366608,0.9637502373849334,0.3647414549297432,0.5956607275996082,1.285945732565805,0.7165820774302254,0.8924986803619718,0.794516473899785,1.187329165829417,0.6086839084720249,0.6806442184641951,1.370609553315542,0.7737082750350546,802.6373626373627,816.7399267399268,752.6739926739926,792.967032967033,885.2380952380953,0.077271,-0.072815,1.001404,3.304749,-3.177643,0.396271,1,1,1,1,1,60.000000
2020-07-10 14:46:50.610,1.307582750743919,1.455739744244638,0.9509142651491433,1.402693964473842,0.5879029169211011,0.7618901515967758,0.2939818690243751,0.86121000457042,0.9886901377585697,0.3647414549297432,0.6455948515877543,1.28883509644124,0.7861522830659289,0.8924986803619718,0.8779664784737973,1.272912624042135,0.6360559125526128,0.6806442184641951,1.378704397252856,0.788741406253655,721.6483516483516,1284.139194139194,711.5750915750916,932.3809523809524,796.996336996337,-0.037964,0.076843,0.999939,27.888489,10.026398,-48.195496,1,1,1,1,1,60.000000
2020-07-10 14:46:50.708,,,,,,,,,,,,,,,,,,,,,,,,,,,,,,,,,,,,,,/muse/elements/blink
2020-07-10 14:46:51.110,1.388321989105676,1.455739744244638,1.376446334162989,1.466399058873715,0.6834160549024245,0.7618901515967758,0.8235058339699229,0.9680092830867943,0.9886901377585697,0.3647414549297432,0.8276415684362862,1.256335537955932,0.8645094941270032,0.8924986803619718,0.9518183002683529,1.297876053066689,0.7176175314273624,0.6806442184641951,1.386782817992115,0.7997253885186755,742.6007326007326,1109.267399267399,778.0586080586081,727.6923076923077,1031.904761904762,0.019836,0.087402,1.055298,-18.789215,-4.785156,27.753906,1,1,4,1,1,60.000000
2020-07-10 14:46:51.614,0.8369019635353422,1.455739744244638,1.546544751707647,0.8426746825674143,0.8831538617198292,0.7618901515967758,0.9988870904353321,1.088443212373955,0.8852218252654238,0.3647414549297432,0.8290804460911408,0.8672929257977506,0.9315958396902401,0.8924986803619718,0.9694009527451801,1.360701670959216,0.7131242808244814,0.6806442184641951,1.392104468858237,0.9032108345959312,821.5750915750916,1058.095238095238,780.0732600732601,789.7435897435897,672.0879120879121,-0.017334,-0.102783,1.014282,3.506622,-4.052429,4.732819,1,1,4,1,1,60.000000
2020-07-10 14:46:52.123,0.8369019635353422,1.455739744244638,1.657855757509828,0.8426746825674143,0.8831538617198292,0.7618901515967758,1.13159576986443,1.088443212373955,0.8852218252654238,0.3647414549297432,0.8167589450343571,0.8672929257977506,0.9315958396902401,0.8924986803619718,0.9203080909139663,1.360701670959216,0.7131242808244814,0.6806442184641951,1.39881865318125,0.9032108345959312,794.1758241758242,806.6666666666667,761.5384615384615,753.8827838827839,753.4798534798535,-0.035278,-0.100891,1.010498,5.630035,-4.785156,-0.702820,1,1,2,1,1,60.000000
2020-07-10 14:46:52.514,,,,,,,,,,,,,,,,,,,,,,,,,,,,,,,,,,,,,,/muse/elements/jaw_clench
2020-07-10 14:46:52.616,0.8369019635353422,1.455739744244638,1.818958546743125,0.8426746825674143,0.8831538617198292,0.7618901515967758,0.8582808151066597,1.088443212373955,0.8852218252654238,0.3647414549297432,0.7049352299554585,0.8672929257977506,0.9315958396902401,0.8924986803619718,0.9036677915145002,1.360701670959216,0.7131242808244814,0.6806442184641951,1.395886455105756,0.9032108345959312,758.7179487179487,472.2344322344322,701.0989010989011,842.5274725274726,1195.091575091575,-0.062439,-0.004883,0.998047,42.154236,10.041351,-55.231171,1,1,4,1,1,60.000000
2020-07-10 14:46:52.730,,,,,,,,,,,,,,,,,,,,,,,,,,,,,,,,,,,,,,/muse/elements/blink
2020-07-10 14:46:52.730,,,,,,,,,,,,,,,,,,,,,,,,,,,,,,,,,,,,,,/muse/elements/jaw_clench
2020-07-10 14:46:53.110,0.8369019635353422,1.455739744244638,1.843801133993412,0.8426746825674143,0.8831538617198292,0.7618901515967758,0.843836568064418,1.088443212373955,0.8852218252654238,0.3647414549297432,0.6918410223730147,0.8672929257977506,0.9315958396902401,0.8924986803619718,0.8932886067631082,1.360701670959216,0.7131242808244814,0.6806442184641951,1.404949327617879,0.9032108345959312,779.6703296703297,929.5604395604396,770.4029304029305,834.4688644688645,491.5750915750916,-0.140991,0.092102,0.990540,-0.314026,-1.891632,0.979462,1,1,4,1,1,60.000000
2020-07-10 14:46:53.610,0.8369019635353422,1.455739744244638,1.967326665607935,0.8426746825674143,0.8831538617198292,0.7618901515967758,0.4940260519142547,1.088443212373955,0.8852218252654238,0.3647414549297432,0.6816408480908743,0.8672929257977506,0.9315958396902401,0.8924986803619718,0.8983868700740475,1.360701670959216,0.7131242808244814,0.6806442184641951,1.414690736498781,0.9032108345959312,796.1904761904763,892.893772893773,988.3882783882784,814.7252747252747,1013.369963369963,-0.179626,0.009338,0.986755,-0.994415,-4.134674,7.289886,1,2,1,1,2,60.000000
2020-07-10 14:46:54.120,0.9794501163672988,1.455739744244638,1.613197419132872,0.8426746825674143,0.6035358744953448,0.7618901515967758,0.470686547779936,1.088443212373955,0.8258151581793137,0.3647414549297432,0.407780186426698,0.8672929257977506,1.070742814397027,0.8924986803619718,0.7885231876842881,1.360701670959216,0.9992175787084435,0.6806442184641951,1.519563532620975,0.9032108345959312,820.7692307692308,888.8644688644689,907.8021978021978,846.5567765567765,853.4065934065934,-0.160706,0.051392,0.989746,7.559052,-3.955231,-1.039276,1,1,1,1,1,60.000000
2020-07-10 14:46:54.616,1.113421451716546,1.455739744244638,1.473191067268093,1.614306805946282,0.5754222193521858,0.7618901515967758,0.4811285742869167,0.7739303375052763,0.8422569051683235,0.3647414549297432,0.5524140862979363,1.028411918054721,0.951624620955326,0.8924986803619718,0.7255780843371086,1.007697778628918,0.8736303866692074,0.6806442184641951,1.50170593482103,0.9886659142712387,794.5787545787546,837.2893772893773,834.0659340659341,814.7252747252747,413.8095238095238,-0.125732,0.070801,0.986938,3.229980,-5.420685,5.293579,1,1,1,1,1,60.000000
2020-07-10 14:46:55.131,1.037942708664301,1.912232059949303,0.9477490834370316,1.888143704014468,0.4567983832467459,0.8578292719270797,0.3974927680937974,0.8070217604291946,0.916209970983451,0.7497068083877868,0.6141994792504264,1.04538978115395,0.9063400125734912,0.6773991782233383,0.7517518558024356,1.018391475321535,0.8261823461376844,0.7722493260610186,1.511344483165588,0.9768954823332591,809.4871794871796,771.6117216117216,1055.274725274725,716.4102564102565,525.018315018315,-0.139160,-0.096558,0.963257,-21.847229,-15.334930,40.546722,1,1,1,1,1,60.000000
2020-07-10 14:46:55.622,1.04232563800837,1.96761432661494,1.014390932906849,1.980888139453862,0.4190883258688716,0.9717703146379937,0.3923160882581332,0.8222692749556992,0.7932367755339099,1.014597208782094,0.6113832983346426,1.01787488138662,0.9067812455878811,0.7121202999040405,0.7928726059266955,1.002464775047297,0.6631362146453998,0.7121767825434091,1.468717135794009,0.912657495325615,780.8791208791209,797.3992673992674,862.2710622710623,765.1648351648352,1027.875457875458,-0.061951,-0.093994,1.001038,3.596344,-6.130981,1.831818,1,1,1,1,1,60.000000
2020-07-10 14:46:56.115,1.012930803313117,1.923493377199235,0.9173120646069947,2.171339919915275,0.4173988932146035,0.9794662423430753,0.3355083983333187,0.9064944787897102,0.7767314366926207,1.05126607841198,0.3682506503682124,1.012598552476268,0.9309601981846816,0.762604148859556,0.8660709134237338,0.9910201544259971,0.6598179502200994,0.6624650827610215,1.495683674259375,0.9013475571422813,752.2710622710623,653.5531135531136,806.2637362637363,867.5091575091575,340.4761904761905,-0.109802,0.015259,0.993835,44.808502,9.981537,-65.197754,1,1,1,1,1,60.000000
2020-07-10 14:46:56.256,,,,,,,,,,,,,,,,,,,,,,,,,,,,,,,,,,,,,,/muse/elements/blink
2020-07-10 14:46:56.407,,,,,,,,,,,,,,,,,,,,,,,,,,,,,,,,,,,,,,/muse/elements/jaw_clench
2020-07-10 14:46:56.623,1.088649807842532,1.929016392821987,1.661068212273823,2.171339919915275,0.5410441082606784,1.029512574178022,0.7519050622075351,0.9064944787897102,0.7259276966478895,1.05126607841198,0.2931105102868556,1.012598552476268,0.9901454304850751,0.799661005748262,1.013368715429976,0.9910201544259971,0.6277519612564956,0.5950378434663569,1.397465875873972,0.9013475571422813,732.9304029304029,556.0439560439561,900.1465201465202,765.9706959706959,452.8937728937729,-0.159302,0.185486,0.994141,-8.231964,-10.729218,10.460052,1,1,1,1,1,80.000000
2020-07-10 14:46:57.110,1.189525316745754,1.821349664599794,1.659583034783851,2.171339919915275,0.5818209390370775,1.055722191438021,0.780070647075345,0.9064944787897102,0.5397118561574519,1.027506286517773,0.4940205820230484,1.012598552476268,0.8741061346498551,0.8421358869269343,1.008650928033232,0.9910201544259971,0.6569049204413221,0.5564134488701707,1.417316892630954,0.9013475571422813,1286.153846153846,970.2564102564103,820.7692307692308,743.0036630036631,659.5970695970697,-0.087585,0.052307,1.007202,-9.039459,-2.818756,2.998199,1,1,1,1,1,80.000000
2020-07-10 14:46:57.122,,,,,,,,,,,,,,,,,,,,,,,,,,,,,,,,,,,,,,/muse/elements/blink
2020-07-10 14:46:57.412,,,,,,,,,,,,,,,,,,,,,,,,,,,,,,,,,,,,,,/muse/elements/blink
2020-07-10 14:46:57.620,1.183489789834034,1.80387577954192,1.659583034783851,2.171339919915275,0.5677552709279996,0.8672031323325288,0.780070647075345,0.9064944787897102,0.5088642211365078,0.7349362936029027,0.4940205820230484,1.012598552476268,0.860524724694242,0.8404548546989784,1.008650928033232,0.9910201544259971,0.693478211466686,0.5285156464950963,1.417316892630954,0.9013475571422813,1143.113553113553,901.3553113553114,946.0805860805862,837.2893772893773,743.8095238095239,-0.254456,-0.047363,0.955872,-6.549683,-12.022705,-6.385193,1,1,1,1,1,80.000000
2020-07-10 14:46:58.016,,,,,,,,,,,,,,,,,,,,,,,,,,,,,,,,,,,,,,/muse/elements/blink
2020-07-10 14:46:58.016,,,,,,,,,,,,,,,,,,,,,,,,,,,,,,,,,,,,,,/muse/elements/jaw_clench
2020-07-10 14:46:58.124,1.183489789834034,1.80387577954192,1.699801553180585,2.171339919915275,0.5677552709279996,0.8672031323325288,0.8361243754880896,0.9064944787897102,0.5088642211365078,0.7349362936029027,0.4863059578678684,1.012598552476268,0.860524724694242,0.8404548546989784,0.9899577544728001,0.9910201544259971,0.693478211466686,0.5285156464950963,1.442112192871581,0.9013475571422813,1093.956043956044,1002.087912087912,821.5750915750916,984.7619047619048,737.3626373626374,0.313354,-0.372498,0.821106,20.097656,4.912262,-6.325378,1,1,1,4,1,80.000000
2020-07-10 14:46:58.234,,,,,,,,,,,,,,,,,,,,,,,,,,,,,,,,,,,,,,/muse/elements/jaw_clench
2020-07-10 14:46:58.515,,,,,,,,,,,,,,,,,,,,,,,,,,,,,,,,,,,,,,/muse/elements/blink
2020-07-10 14:46:58.515,,,,,,,,,,,,,,,,,,,,,,,,,,,,,,,,,,,,,,/muse/elements/jaw_clench
2020-07-10 14:46:58.617,1.183489789834034,1.80387577954192,1.699801553180585,2.171339919915275,0.5677552709279996,0.8672031323325288,0.8361243754880896,0.9064944787897102,0.5088642211365078,0.7349362936029027,0.4863059578678684,1.012598552476268,0.860524724694242,0.8404548546989784,0.9899577544728001,0.9910201544259971,0.693478211466686,0.5285156464950963,1.442112192871581,0.9013475571422813,684.5787545787546,800.2197802197802,1602.857142857143,765.9706959706959,960.5860805860806,-0.189575,0.184937,1.032104,10.131073,1.173859,11.327362,1,1,1,4,1,80.000000
2020-07-10 14:46:58.708,,,,,,,,,,,,,,,,,,,,,,,,,,,,,,,,,,,,,,/muse/elements/blink
2020-07-10 14:46:59.110,1.183489789834034,1.80387577954192,1.699801553180585,2.171339919915275,0.5677552709279996,0.8672031323325288,0.8361243754880896,0.9064944787897102,0.5088642211365078,0.7349362936029027,0.4863059578678684,1.012598552476268,0.860524724694242,0.8404548546989784,0.9899577544728001,0.9910201544259971,0.693478211466686,0.5285156464950963,1.442112192871581,0.9013475571422813,745.4212454212454,734.1391941391942,536.7032967032967,710.3663003663004,705.934065934066,-0.091797,0.076111,1.031677,-2.056122,-8.508606,-4.934692,1,2,2,4,2,80.000000
2020-07-10 14:46:59.352,,,,,,,,,,,,,,,,,,,,,,,,,,,,,,,,,,,,,,/muse/elements/blink
2020-07-10 14:46:59.530,,,,,,,,,,,,,,,,,,,,,,,,,,,,,,,,,,,,,,/muse/elements/jaw_clench
2020-07-10 14:46:59.610,1.183489789834034,1.80387577954192,1.699801553180585,2.171339919915275,0.5677552709279996,0.8672031323325288,0.8361243754880896,0.9064944787897102,0.5088642211365078,0.7349362936029027,0.4863059578678684,1.012598552476268,0.860524724694242,0.8404548546989784,0.9899577544728001,0.9910201544259971,0.693478211466686,0.5285156464950963,1.442112192871581,0.9013475571422813,769.5970695970697,836.4835164835165,598.3516483516484,647.5091575091575,841.3186813186813,-0.134216,0.294006,0.965698,7.932892,-2.901001,5.301056,1,2,2,4,2,80.000000
2020-07-10 14:47:00.122,1.183489789834034,1.80387577954192,1.699801553180585,2.171339919915275,0.5677552709279996,0.8672031323325288,0.8361243754880896,0.9064944787897102,0.5088642211365078,0.7349362936029027,0.4863059578678684,1.012598552476268,0.860524724694242,0.8404548546989784,0.9899577544728001,0.9910201544259971,0.693478211466686,0.5285156464950963,1.442112192871581,0.9013475571422813,768.7912087912088,721.6483516483516,805.4578754578755,780.0732600732601,726.4835164835165,-0.145996,0.189758,1.000610,-3.080444,-1.069183,-0.366364,1,2,2,4,2,80.000000
2020-07-10 14:47:00.610,1.183489789834034,1.80387577954192,1.699801553180585,2.171339919915275,0.5677552709279996,0.8672031323325288,0.8361243754880896,0.9064944787897102,0.5088642211365078,0.7349362936029027,0.4863059578678684,1.012598552476268,0.860524724694242,0.8404548546989784,0.9899577544728001,0.9910201544259971,0.693478211466686,0.5285156464950963,1.442112192871581,0.9013475571422813,782.893772893773,714.3956043956044,994.0293040293041,882.014652014652,723.6630036630037,-0.141724,0.041565,0.963135,-20.890198,-12.045135,24.927673,1,2,1,4,2,80.000000
2020-07-10 14:47:00.661,,,,,,,,,,,,,,,,,,,,,,,,,,,,,,,,,,,,,,/muse/elements/blink
2020-07-10 14:47:01.110,1.183489789834034,1.80387577954192,1.699801553180585,2.171339919915275,0.5677552709279996,0.8672031323325288,0.8361243754880896,0.9064944787897102,0.5088642211365078,0.7349362936029027,0.4863059578678684,1.012598552476268,0.860524724694242,0.8404548546989784,0.9899577544728001,0.9910201544259971,0.693478211466686,0.5285156464950963,1.442112192871581,0.9013475571422813,717.6190476190476,735.7509157509157,965.4212454212454,790.952380952381,676.9230769230769,-0.040649,-0.018921,1.022095,2.347717,-2.243042,3.962708,1,2,2,4,2,80.000000
2020-07-10 14:47:01.623,1.183489789834034,1.80387577954192,1.699801553180585,2.171339919915275,0.5677552709279996,0.8672031323325288,0.8361243754880896,0.9064944787897102,0.5088642211365078,0.7349362936029027,0.4863059578678684,1.012598552476268,0.860524724694242,0.8404548546989784,0.9899577544728001,0.9910201544259971,0.693478211466686,0.5285156464950963,1.442112192871581,0.9013475571422813,735.7509157509157,750.6593406593407,721.6483516483516,758.7179487179487,992.4175824175825,-0.057617,-0.033936,1.005737,5.226288,0.695343,-0.089722,1,2,1,2,2,80.000000
2020-07-10 14:47:02.057,,,,,,,,,,,,,,,,,,,,,,,,,,,,,,,,,,,,,,/muse/elements/jaw_clench
2020-07-10 14:47:02.114,1.183489789834034,1.80387577954192,1.699801553180585,2.171339919915275,0.5677552709279996,0.8672031323325288,0.8361243754880896,0.9064944787897102,0.5088642211365078,0.7349362936029027,0.4863059578678684,1.012598552476268,0.860524724694242,0.8404548546989784,0.9899577544728001,0.9910201544259971,0.693478211466686,0.5285156464950963,1.442112192871581,0.9013475571422813,673.2967032967033,866.7032967032967,0,872.7472527472528,676.5201465201466,-0.161438,0.036499,0.974121,-1.824341,-2.026215,-24.037933,1,2,2,4,2,80.000000
2020-07-10 14:47:02.612,1.183489789834034,1.80387577954192,1.699801553180585,2.171339919915275,0.5677552709279996,0.8672031323325288,0.8361243754880896,0.9064944787897102,0.5088642211365078,0.7349362936029027,0.4863059578678684,1.012598552476268,0.860524724694242,0.8404548546989784,0.9899577544728001,0.9910201544259971,0.693478211466686,0.5285156464950963,1.442112192871581,0.9013475571422813,705.5311355311355,731.3186813186813,510.1098901098901,728.901098901099,680.952380952381,-0.173950,0.030457,0.991943,5.323486,-6.243134,-0.979462,1,2,2,2,2,80.000000
2020-07-10 14:47:03.112,1.183489789834034,1.80387577954192,1.699801553180585,2.171339919915275,0.5677552709279996,0.8672031323325288,0.8361243754880896,0.9064944787897102,0.5088642211365078,0.7349362936029027,0.4863059578678684,1.012598552476268,0.860524724694242,0.8404548546989784,0.9899577544728001,0.9910201544259971,0.693478211466686,0.5285156464950963,1.442112192871581,0.9013475571422813,745.8241758241759,867.9120879120879,618.4981684981685,860.6593406593407,1089.92673992674,-0.093933,0.081604,0.985962,7.940369,-10.235748,7.454376,1,2,1,4,2,80.000000
2020-07-10 14:47:03.479,,,,,,,,,,,,,,,,,,,,,,,,,,,,,,,,,,,,,,/muse/elements/jaw_clench
2020-07-10 14:47:03.626,1.183489789834034,1.80387577954192,1.699801553180585,2.171339919915275,0.5677552709279996,0.8672031323325288,0.8361243754880896,0.9064944787897102,0.5088642211365078,0.7349362936029027,0.4863059578678684,1.012598552476268,0.860524724694242,0.8404548546989784,0.9899577544728001,0.9910201544259971,0.693478211466686,0.5285156464950963,1.442112192871581,0.9013475571422813,636.6300366300367,742.1978021978023,701.0989010989011,840.9157509157509,589.4871794871796,-0.077759,0.131409,0.993652,2.175751,-6.145935,5.779572,1,2,2,4,2,80.000000
2020-07-10 14:47:03.758,,,,,,,,,,,,,,,,,,,,,,,,,,,,,,,,,,,,,,/muse/elements/blink
2020-07-10 14:47:04.110,1.183489789834034,1.80387577954192,1.699801553180585,2.171339919915275,0.5677552709279996,0.8672031323325288,0.8361243754880896,0.9064944787897102,0.5088642211365078,0.7349362936029027,0.4863059578678684,1.012598552476268,0.860524724694242,0.8404548546989784,0.9899577544728001,0.9910201544259971,0.693478211466686,0.5285156464950963,1.442112192871581,0.9013475571422813,812.7106227106227,824.3956043956044,753.8827838827839,851.7948717948718,582.6373626373627,-0.001465,0.095459,1.003662,6.340332,-2.878571,-6.310425,1,2,2,4,2,80.000000
2020-07-10 14:47:04.618,1.183489789834034,1.80387577954192,1.699801553180585,2.171339919915275,0.5677552709279996,0.8672031323325288,0.8361243754880896,0.9064944787897102,0.5088642211365078,0.7349362936029027,0.4863059578678684,1.012598552476268,0.860524724694242,0.8404548546989784,0.9899577544728001,0.9910201544259971,0.693478211466686,0.5285156464950963,1.442112192871581,0.9013475571422813,838.4981684981685,690.6227106227107,1427.179487179487,850.1831501831502,1114.102564102564,-0.041565,0.073547,0.973755,6.108551,-1.779480,4.859924,1,2,2,4,2,80.000000
2020-07-10 14:47:04.929,,,,,,,,,,,,,,,,,,,,,,,,,,,,,,,,,,,,,,/muse/elements/blink
2020-07-10 14:47:05.016,,,,,,,,,,,,,,,,,,,,,,,,,,,,,,,,,,,,,,/muse/elements/jaw_clench
2020-07-10 14:47:05.117,1.183489789834034,1.80387577954192,1.699801553180585,2.171339919915275,0.5677552709279996,0.8672031323325288,0.8361243754880896,0.9064944787897102,0.5088642211365078,0.7349362936029027,0.4863059578678684,1.012598552476268,0.860524724694242,0.8404548546989784,0.9899577544728001,0.9910201544259971,0.693478211466686,0.5285156464950963,1.442112192871581,0.9013475571422813,671.2820512820513,767.1794871794872,87.83882783882784,680.5494505494506,691.8315018315019,-0.072449,0.063416,0.973022,8.747864,-2.901001,9.196472,1,2,2,4,2,80.000000
2020-07-10 14:47:05.383,,,,,,,,,,,,,,,,,,,,,,,,,,,,,,,,,,,,,,/muse/elements/blink
2020-07-10 14:47:05.616,1.183489789834034,1.80387577954192,1.699801553180585,2.171339919915275,0.5677552709279996,0.8672031323325288,0.8361243754880896,0.9064944787897102,0.5088642211365078,0.7349362936029027,0.4863059578678684,1.012598552476268,0.860524724694242,0.8404548546989784,0.9899577544728001,0.9910201544259971,0.693478211466686,0.5285156464950963,1.442112192871581,0.9013475571422813,673.6996336996338,736.959706959707,691.025641025641,607.6190476190476,637.4358974358975,-0.040222,0.244080,0.995728,-3.514099,-8.800201,0.478516,1,2,2,4,2,80.000000
2020-07-10 14:47:05.641,,,,,,,,,,,,,,,,,,,,,,,,,,,,,,,,,,,,,,/muse/elements/blink
2020-07-10 14:47:06.110,1.183489789834034,1.80387577954192,1.699801553180585,2.171339919915275,0.5677552709279996,0.8672031323325288,0.8361243754880896,0.9064944787897102,0.5088642211365078,0.7349362936029027,0.4863059578678684,1.012598552476268,0.860524724694242,0.8404548546989784,0.9899577544728001,0.9910201544259971,0.693478211466686,0.5285156464950963,1.442112192871581,0.9013475571422813,811.5018315018315,912.2344322344322,1539.59706959707,797.3992673992674,990.4029304029305,0.004456,-0.064941,0.990906,-9.465637,-8.658142,37.855072,1,2,2,4,2,80.000000
2020-07-10 14:47:06.156,,,,,,,,,,,,,,,,,,,,,,,,,,,,,,,,,,,,,,/muse/elements/blink
2020-07-10 14:47:06.612,1.183489789834034,1.80387577954192,1.699801553180585,2.171339919915275,0.5677552709279996,0.8672031323325288,0.8361243754880896,0.9064944787897102,0.5088642211365078,0.7349362936029027,0.4863059578678684,1.012598552476268,0.860524724694242,0.8404548546989784,0.9899577544728001,0.9910201544259971,0.693478211466686,0.5285156464950963,1.442112192871581,0.9013475571422813,842.5274725274726,792.5641025641025,815.1282051282052,747.4358974358975,666.0439560439561,0.008118,-0.056030,0.987976,4.456177,-1.143951,4.358978,1,2,2,2,2,80.000000
2020-07-10 14:47:06.760,,,,,,,,,,,,,,,,,,,,,,,,,,,,,,,,,,,,,,/muse/elements/blink
2020-07-10 14:47:07.123,1.183489789834034,1.80387577954192,1.699801553180585,2.171339919915275,0.5677552709279996,0.8672031323325288,0.8361243754880896,0.9064944787897102,0.5088642211365078,0.7349362936029027,0.4863059578678684,1.012598552476268,0.860524724694242,0.8404548546989784,0.9899577544728001,0.9910201544259971,0.693478211466686,0.5285156464950963,1.442112192871581,0.9013475571422813,723.2600732600732,801.4285714285714,378.7545787545787,862.6739926739926,496.8131868131868,-0.076355,-0.008057,0.982544,-2.452393,-2.818756,-22.901459,1,2,2,2,2,95.000000
2020-07-10 14:47:07.126,,,,,,,,,,,,,,,,,,,,,,,,,,,,,,,,,,,,,,/muse/elements/blink
2020-07-10 14:47:07.618,1.183489789834034,1.80387577954192,1.699801553180585,2.171339919915275,0.5677552709279996,0.8672031323325288,0.8361243754880896,0.9064944787897102,0.5088642211365078,0.7349362936029027,0.4863059578678684,1.012598552476268,0.860524724694242,0.8404548546989784,0.9899577544728001,0.9910201544259971,0.693478211466686,0.5285156464950963,1.442112192871581,0.9013475571422813,753.4798534798535,821.1721611721612,758.3150183150184,753.8827838827839,938.4249084249085,-0.066528,-0.019897,0.990479,7.618866,-4.172058,-1.839294,1,2,2,2,2,95.000000
2020-07-10 14:47:07.840,,,,,,,,,,,,,,,,,,,,,,,,,,,,,,,,,,,,,,/muse/elements/blink
2020-07-10 14:47:08.111,1.183489789834034,1.80387577954192,1.699801553180585,2.171339919915275,0.5677552709279996,0.8672031323325288,0.8361243754880896,0.9064944787897102,0.5088642211365078,0.7349362936029027,0.4863059578678684,1.012598552476268,0.860524724694242,0.8404548546989784,0.9899577544728001,0.9910201544259971,0.693478211466686,0.5285156464950963,1.442112192871581,0.9013475571422813,801.4285714285714,855.0183150183151,871.5384615384615,836.0805860805862,747.8388278388279,-0.058777,0.012085,0.989319,12.770386,-13.226471,7.125397,1,2,2,1,2,95.000000
2020-07-10 14:47:08.613,1.183489789834034,1.80387577954192,1.699801553180585,2.171339919915275,0.5677552709279996,0.8672031323325288,0.8361243754880896,0.9064944787897102,0.5088642211365078,0.7349362936029027,0.4863059578678684,1.012598552476268,0.860524724694242,0.8404548546989784,0.9899577544728001,0.9910201544259971,0.693478211466686,0.5285156464950963,1.442112192871581,0.9013475571422813,821.978021978022,805.8608058608058,810.2930402930403,797.3992673992674,684.5787545787546,0.003540,0.078857,1.001404,4.598236,-5.114136,-2.833710,1,2,1,2,2,95.000000
2020-07-10 14:47:08.959,,,,,,,,,,,,,,,,,,,,,,,,,,,,,,,,,,,,,,/muse/elements/jaw_clench
2020-07-10 14:47:09.067,,,,,,,,,,,,,,,,,,,,,,,,,,,,,,,,,,,,,,/muse/elements/blink
2020-07-10 14:47:09.110,1.183489789834034,1.80387577954192,1.699801553180585,2.171339919915275,0.5677552709279996,0.8672031323325288,0.8361243754880896,0.9064944787897102,0.5088642211365078,0.7349362936029027,0.4863059578678684,1.012598552476268,0.860524724694242,0.8404548546989784,0.9899577544728001,0.9910201544259971,0.693478211466686,0.5285156464950963,1.442112192871581,0.9013475571422813,713.5897435897436,831.2454212454213,712.3809523809524,697.8754578754579,973.0769230769231,-0.022095,0.106079,1.012451,7.372131,-1.958923,1.151428,1,2,2,2,2,95.000000
2020-07-10 14:47:09.618,1.183489789834034,1.80387577954192,1.699801553180585,2.171339919915275,0.5677552709279996,0.8672031323325288,0.8361243754880896,0.9064944787897102,0.5088642211365078,0.7349362936029027,0.4863059578678684,1.012598552476268,0.860524724694242,0.8404548546989784,0.9899577544728001,0.9910201544259971,0.693478211466686,0.5285156464950963,1.442112192871581,0.9013475571422813,805.8608058608058,788.9377289377289,975.0915750915751,749.4505494505495,612.4542124542124,-0.004944,0.080750,0.998657,3.035583,-6.631927,-2.459869,1,2,2,2,2,95.000000
2020-07-10 14:47:10.124,1.183489789834034,1.80387577954192,1.699801553180585,2.171339919915275,0.5677552709279996,0.8672031323325288,0.8361243754880896,0.9064944787897102,0.5088642211365078,0.7349362936029027,0.4863059578678684,1.012598552476268,0.860524724694242,0.8404548546989784,0.9899577544728001,0.9910201544259971,0.693478211466686,0.5285156464950963,1.442112192871581,0.9013475571422813,910.2197802197802,822.7838827838829,1294.615384615385,893.6996336996338,792.967032967033,-0.000610,0.074341,0.999756,5.031891,-1.368256,-2.714081,1,2,1,2,2,95.000000
2020-07-10 14:47:10.212,,,,,,,,,,,,,,,,,,,,,,,,,,,,,,,,,,,,,,/muse/elements/blink
2020-07-10 14:47:10.610,1.183489789834034,1.80387577954192,1.699801553180585,2.171339919915275,0.5677552709279996,0.8672031323325288,0.8361243754880896,0.9064944787897102,0.5088642211365078,0.7349362936029027,0.4863059578678684,1.012598552476268,0.860524724694242,0.8404548546989784,0.9899577544728001,0.9910201544259971,0.693478211466686,0.5285156464950963,1.442112192871581,0.9013475571422813,778.8644688644689,766.3736263736264,749.4505494505495,734.5421245421246,973.0769230769231,-0.033691,0.079102,0.992676,3.955231,-3.581390,0.755157,1,2,2,2,2,95.000000
2020-07-10 14:47:11.111,1.183489789834034,1.80387577954192,1.699801553180585,2.171339919915275,0.5677552709279996,0.8672031323325288,0.8361243754880896,0.9064944787897102,0.5088642211365078,0.7349362936029027,0.4863059578678684,1.012598552476268,0.860524724694242,0.8404548546989784,0.9899577544728001,0.9910201544259971,0.693478211466686,0.5285156464950963,1.442112192871581,0.9013475571422813,739.7802197802198,714.3956043956044,741.3919413919414,764.3589743589744,618.0952380952381,-0.040955,0.111328,1.016663,17.705078,-9.473114,2.093506,1,2,2,2,2,95.000000
2020-07-10 14:47:11.119,,,,,,,,,,,,,,,,,,,,,,,,,,,,,,,,,,,,,,/muse/elements/blink
2020-07-10 14:47:11.610,1.183489789834034,1.80387577954192,1.699801553180585,2.171339919915275,0.5677552709279996,0.8672031323325288,0.8361243754880896,0.9064944787897102,0.5088642211365078,0.7349362936029027,0.4863059578678684,1.012598552476268,0.860524724694242,0.8404548546989784,0.9899577544728001,0.9910201544259971,0.693478211466686,0.5285156464950963,1.442112192871581,0.9013475571422813,785.7142857142858,800.6227106227107,783.6996336996338,766.7765567765568,699.8901098901099,-0.023438,0.101196,1.001526,2.990723,-4.770203,0.515900,1,2,2,2,2,95.000000
2020-07-10 14:47:12.108,,,,,,,,,,,,,,,,,,,,,,,,,,,,,,,,,,,,,,/muse/elements/blink
2020-07-10 14:47:12.122,1.183489789834034,1.80387577954192,1.699801553180585,2.171339919915275,0.5677552709279996,0.8672031323325288,0.8361243754880896,0.9064944787897102,0.5088642211365078,0.7349362936029027,0.4863059578678684,1.012598552476268,0.860524724694242,0.8404548546989784,0.9899577544728001,0.9910201544259971,0.693478211466686,0.5285156464950963,1.442112192871581,0.9013475571422813,823.992673992674,755.4945054945055,834.4688644688645,821.978021978022,925.5311355311355,-0.035706,0.093506,0.993469,3.259888,-4.239349,0.082245,1,2,2,2,2,95.000000
2020-07-10 14:47:12.618,1.183489789834034,1.80387577954192,1.699801553180585,2.171339919915275,0.5677552709279996,0.8672031323325288,0.8361243754880896,0.9064944787897102,0.5088642211365078,0.7349362936029027,0.4863059578678684,1.012598552476268,0.860524724694242,0.8404548546989784,0.9899577544728001,0.9910201544259971,0.693478211466686,0.5285156464950963,1.442112192871581,0.9013475571422813,796.996336996337,774.4322344322345,906.996336996337,790.952380952381,808.6813186813187,-0.007996,0.091553,0.994934,4.927216,-3.506622,-0.635529,1,2,2,2,2,95.000000
2020-07-10 14:47:13.111,1.183489789834034,1.80387577954192,1.699801553180585,2.171339919915275,0.5677552709279996,0.8672031323325288,0.8361243754880896,0.9064944787897102,0.5088642211365078,0.7349362936029027,0.4863059578678684,1.012598552476268,0.860524724694242,0.8404548546989784,0.9899577544728001,0.9910201544259971,0.693478211466686,0.5285156464950963,1.442112192871581,0.9013475571422813,809.0842490842491,593.1135531135532,733.3333333333334,794.5787545787546,661.6117216117216,-0.018127,0.084229,1.000427,4.037476,-3.020630,-0.463562,1,2,1,1,2,95.000000
2020-07-10 14:47:13.323,,,,,,,,,,,,,,,,,,,,,,,,,,,,,,,,,,,,,,/muse/elements/blink
2020-07-10 14:47:13.624,1.183489789834034,1.80387577954192,1.699801553180585,2.171339919915275,0.5677552709279996,0.8672031323325288,0.8361243754880896,0.9064944787897102,0.5088642211365078,0.7349362936029027,0.4863059578678684,1.012598552476268,0.860524724694242,0.8404548546989784,0.9899577544728001,0.9910201544259971,0.693478211466686,0.5285156464950963,1.442112192871581,0.9013475571422813,820.7692307692308,773.6263736263736,753.8827838827839,810.2930402930403,1046.410256410256,-0.031128,0.073486,0.996460,4.179535,-3.065491,-1.091614,1,2,2,2,2,95.000000
2020-07-10 14:47:14.110,1.183489789834034,1.80387577954192,1.699801553180585,2.171339919915275,0.5677552709279996,0.8672031323325288,0.8361243754880896,0.9064944787897102,0.5088642211365078,0.7349362936029027,0.4863059578678684,1.012598552476268,0.860524724694242,0.8404548546989784,0.9899577544728001,0.9910201544259971,0.693478211466686,0.5285156464950963,1.442112192871581,0.9013475571422813,747.4358974358975,780.4761904761905,814.3223443223443,767.1794871794872,792.1611721611722,-0.033630,0.077576,0.998779,7.237549,-4.022522,0.971985,1,2,1,1,2,95.000000
2020-07-10 14:47:14.610,1.091934143660035,1.80387577954192,1.699801553180585,2.171339919915275,0.5702020721687251,0.8672031323325288,0.8361243754880896,0.9064944787897102,0.8444978201963815,0.7349362936029027,0.4863059578678684,1.012598552476268,0.8130659991568517,0.8404548546989784,0.9899577544728001,0.9910201544259971,0.8086689199568545,0.5285156464950963,1.442112192871581,0.9013475571422813,784.9084249084249,790.1465201465202,817.948717948718,773.6263736263736,682.1611721611722,-0.025696,0.075989,1.001892,4.037476,-2.497253,0.007477,1,1,1,1,1,95.000000
2020-07-10 14:47:14.768,,,,,,,,,,,,,,,,,,,,,,,,,,,,,,,,,,,,,,/muse/elements/blink
2020-07-10 14:47:15.111,1.107931718855452,1.243808987969373,1.699801553180585,2.171339919915275,0.3742763478140632,0.537927878028452,0.8361243754880896,0.9064944787897102,0.5138739028650414,0.754209013698396,0.4863059578678684,1.012598552476268,0.7314207119521623,0.663059255125481,0.9899577544728001,0.9910201544259971,0.8388081567165481,0.5139476757616795,1.442112192871581,0.9013475571422813,799.4139194139194,748.2417582417582,741.7948717948718,791.7582417582418,1034.725274725275,-0.024841,0.082947,0.999268,3.215027,-4.478607,-0.328979,1,1,1,1,1,95.000000
2020-07-10 14:47:15.610,1.107931718855452,1.466009944691574,1.699801553180585,2.171339919915275,0.3742763478140632,0.7201877984751791,0.8361243754880896,0.9064944787897102,0.5138739028650414,0.8271714248607798,0.4863059578678684,1.012598552476268,0.7314207119521623,0.6740919516866204,0.9899577544728001,0.9910201544259971,0.8388081567165481,0.5662922653341181,1.442112192871581,0.9013475571422813,765.1648351648352,815.5311355311355,796.1904761904763,756.7032967032967,639.8534798534798,-0.036255,0.079529,0.997925,4.157104,-4.239349,-0.927124,1,1,1,1,1,95.000000
2020-07-10 14:47:16.089,,,,,,,,,,,,,,,,,,,,,,,,,,,,,,,,,,,,,,/muse/elements/blink
2020-07-10 14:47:16.110,0.6509204998542555,1.473821774147108,1.545079659605169,1.23805410413085,0.8064990010739508,0.8080656875347051,1.082435129669931,1.017006132812459,0.6940044434748374,0.7491487094255023,1.088852978895829,0.8608131073803733,0.8829211708973309,0.604684114083295,0.8655267911862138,0.8825801790582378,0.6544334353285149,0.5982255229739895,1.460232177692268,0.7460255089025781,816.3369963369963,896.1172161172161,828.021978021978,791.3553113553114,713.5897435897436,-0.043030,0.080566,0.988464,4.904785,-2.153320,-0.119629,1,1,1,1,1,95.000000
2020-07-10 14:47:16.619,0.6509204998542555,1.582306603671256,1.545079659605169,1.23805410413085,0.8064990010739508,0.9751812750375705,1.082435129669931,1.017006132812459,0.6940044434748374,0.7411733867097512,1.088852978895829,0.8608131073803733,0.8829211708973309,0.6839392206918428,0.8655267911862138,0.8825801790582378,0.6544334353285149,0.6792033115578723,1.460232177692268,0.7460255089025781,775.6410256410256,780.0732600732601,794.1758241758242,780.8791208791209,964.2124542124542,-0.039246,0.083130,1.000977,3.805695,-3.641205,1.166382,1,1,1,1,1,95.000000
2020-07-10 14:47:17.129,0.6509204998542555,1.582306603671256,1.530304387935778,1.23805410413085,0.8064990010739508,0.9751812750375705,1.094103324353019,1.017006132812459,0.6940044434748374,0.7411733867097512,1.076971586917508,0.8608131073803733,0.8829211708973309,0.6839392206918428,0.8892241559519395,0.8825801790582378,0.6544334353285149,0.6792033115578723,1.472873053573927,0.7460255089025781,608.8278388278388,1044.395604395604,225.2380952380952,880,805.8608058608058,-0.113708,0.172729,1.004211,18.998566,17.652740,-1.899109,1,1,1,1,1,95.000000
2020-07-10 14:47:17.218,,,,,,,,,,,,,,,,,,,,,,,,,,,,,,,,,,,,,,/muse/elements/blink
2020-07-10 14:47:17.218,,,,,,,,,,,,,,,,,,,,,,,,,,,,,,,,,,,,,,/muse/elements/jaw_clench
2020-07-10 14:47:17.625,0.6509204998542555,1.582306603671256,1.530304387935778,1.23805410413085,0.8064990010739508,0.9751812750375705,1.094103324353019,1.017006132812459,0.6940044434748374,0.7411733867097512,1.076971586917508,0.8608131073803733,0.8829211708973309,0.6839392206918428,0.8892241559519395,0.8825801790582378,0.6544334353285149,0.6792033115578723,1.472873053573927,0.7460255089025781,788.1318681318681,839.3040293040293,872.7472527472528,718.4249084249085,889.2673992673992,-0.048889,0.135437,0.988953,2.160797,-5.831909,-0.149536,1,2,4,1,2,90.000000
2020-07-10 14:47:18.120,0.6509204998542555,1.582306603671256,1.530304387935778,1.23805410413085,0.8064990010739508,0.9751812750375705,1.094103324353019,1.017006132812459,0.6940044434748374,0.7411733867097512,1.076971586917508,0.8608131073803733,0.8829211708973309,0.6839392206918428,0.8892241559519395,0.8825801790582378,0.6544334353285149,0.6792033115578723,1.472873053573927,0.7460255089025781,816.3369963369963,825.2014652014652,836.0805860805862,794.5787545787546,960.1831501831502,-0.044250,0.107849,0.987305,3.424377,-2.086029,-1.540222,1,2,1,1,2,90.000000
2020-07-10 14:47:18.217,,,,,,,,,,,,,,,,,,,,,,,,,,,,,,,,,,,,,,/muse/elements/blink
2020-07-10 14:47:18.610,0.6509204998542555,1.582306603671256,1.530304387935778,1.23805410413085,0.8064990010739508,0.9751812750375705,1.094103324353019,1.017006132812459,0.6940044434748374,0.7411733867097512,1.076971586917508,0.8608131073803733,0.8829211708973309,0.6839392206918428,0.8892241559519395,0.8825801790582378,0.6544334353285149,0.6792033115578723,1.472873053573927,0.7460255089025781,990.8058608058608,512.9304029304029,854.6153846153846,843.7362637362637,762.3443223443223,-0.039062,0.101318,0.986694,4.411316,-4.187012,0.732727,1,2,1,1,2,90.000000
2020-07-10 14:47:19.124,0.6509204998542555,1.582306603671256,1.530304387935778,1.23805410413085,0.8064990010739508,0.9751812750375705,1.094103324353019,1.017006132812459,0.6940044434748374,0.7411733867097512,1.076971586917508,0.8608131073803733,0.8829211708973309,0.6839392206918428,0.8892241559519395,0.8825801790582378,0.6544334353285149,0.6792033115578723,1.472873053573927,0.7460255089025781,881.2087912087912,798.2051282051282,678.9377289377289,693.8461538461538,849.3772893772895,-0.058350,0.179138,0.980042,2.474823,11.843262,-3.297272,1,2,1,4,2,90.000000
2020-07-10 14:47:19.616,0.6509204998542555,1.582306603671256,1.530304387935778,1.23805410413085,0.8064990010739508,0.9751812750375705,1.094103324353019,1.017006132812459,0.6940044434748374,0.7411733867097512,1.076971586917508,0.8608131073803733,0.8829211708973309,0.6839392206918428,0.8892241559519395,0.8825801790582378,0.6544334353285149,0.6792033115578723,1.472873053573927,0.7460255089025781,871.5384615384615,691.8315018315019,852.1978021978023,796.1904761904763,911.4285714285714,-0.008118,0.126160,0.993896,-1.786957,-5.016937,0.104675,1,2,1,2,2,90.000000
2020-07-10 14:47:19.842,,,,,,,,,,,,,,,,,,,,,,,,,,,,,,,,,,,,,,/muse/elements/blink
2020-07-10 14:47:20.116,0.6509204998542555,1.582306603671256,1.530304387935778,1.23805410413085,0.8064990010739508,0.9751812750375705,1.094103324353019,1.017006132812459,0.6940044434748374,0.7411733867097512,1.076971586917508,0.8608131073803733,0.8829211708973309,0.6839392206918428,0.8892241559519395,0.8825801790582378,0.6544334353285149,0.6792033115578723,1.472873053573927,0.7460255089025781,967.4358974358975,621.3186813186813,1157.619047619048,1078.241758241758,743.8095238095239,0.052734,0.088623,1.037659,-30.236206,-4.934692,50.386200,1,2,1,2,2,90.000000
2020-07-10 14:47:20.611,0.6509204998542555,1.582306603671256,1.530304387935778,1.23805410413085,0.8064990010739508,0.9751812750375705,1.094103324353019,1.017006132812459,0.6940044434748374,0.7411733867097512,1.076971586917508,0.8608131073803733,0.8829211708973309,0.6839392206918428,0.8892241559519395,0.8825801790582378,0.6544334353285149,0.6792033115578723,1.472873053573927,0.7460255089025781,813.1135531135532,767.1794871794872,875.1648351648352,805.8608058608058,761.1355311355312,0.023804,-0.066895,0.996216,9.495544,9.772186,-2.661743,1,2,1,2,2,90.000000
2020-07-10 14:47:21.111,0.6509204998542555,1.582306603671256,1.530304387935778,1.23805410413085,0.8064990010739508,0.9751812750375705,1.094103324353019,1.017006132812459,0.6940044434748374,0.7411733867097512,1.076971586917508,0.8608131073803733,0.8829211708973309,0.6839392206918428,0.8892241559519395,0.8825801790582378,0.6544334353285149,0.6792033115578723,1.472873053573927,0.7460255089025781,792.967032967033,1143.919413919414,720.4395604395604,917.8754578754579,740.989010989011,-0.025818,0.008850,0.991394,3.476715,0.254211,-6.676788,1,2,1,2,2,90.000000
2020-07-10 14:47:21.138,,,,,,,,,,,,,,,,,,,,,,,,,,,,,,,,,,,,,,/muse/elements/jaw_clench
2020-07-10 14:47:21.611,0.6509204998542555,1.582306603671256,1.530304387935778,1.23805410413085,0.8064990010739508,0.9751812750375705,1.094103324353019,1.017006132812459,0.6940044434748374,0.7411733867097512,1.076971586917508,0.8608131073803733,0.8829211708973309,0.6839392206918428,0.8892241559519395,0.8825801790582378,0.6544334353285149,0.6792033115578723,1.472873053573927,0.7460255089025781,727.6923076923077,1074.615384615385,822.7838827838829,729.7069597069598,722.4542124542124,-0.040527,0.116943,1.010132,-0.635529,-6.205750,-0.508423,1,2,4,2,2,90.000000
2020-07-10 14:47:22.126,0.6509204998542555,1.582306603671256,1.530304387935778,1.23805410413085,0.8064990010739508,0.9751812750375705,1.094103324353019,1.017006132812459,0.6940044434748374,0.7411733867097512,1.076971586917508,0.8608131073803733,0.8829211708973309,0.6839392206918428,0.8892241559519395,0.8825801790582378,0.6544334353285149,0.6792033115578723,1.472873053573927,0.7460255089025781,649.5238095238095,700.6959706959707,606.8131868131868,602.7838827838827,774.8351648351648,-0.039246,0.093140,1.007385,-1.764526,-8.770294,-0.007477,1,2,2,2,2,90.000000
2020-07-10 14:47:22.261,,,,,,,,,,,,,,,,,,,,,,,,,,,,,,,,,,,,,,/muse/elements/blink
2020-07-10 14:47:22.370,,,,,,,,,,,,,,,,,,,,,,,,,,,,,,,,,,,,,,/muse/elements/jaw_clench
2020-07-10 14:47:22.607,,,,,,,,,,,,,,,,,,,,,,,,,,,,,,,,,,,,,,/muse/elements/jaw_clench
2020-07-10 14:47:22.620,0.6509204998542555,1.582306603671256,1.530304387935778,1.23805410413085,0.8064990010739508,0.9751812750375705,1.094103324353019,1.017006132812459,0.6940044434748374,0.7411733867097512,1.076971586917508,0.8608131073803733,0.8829211708973309,0.6839392206918428,0.8892241559519395,0.8825801790582378,0.6544334353285149,0.6792033115578723,1.472873053573927,0.7460255089025781,736.5567765567765,858.2417582417582,781.2820512820513,734.1391941391942,921.9047619047619,-0.017029,0.039978,0.998718,6.018829,-2.355194,-0.605621,1,2,4,2,2,90.000000
2020-07-10 14:47:23.084,,,,,,,,,,,,,,,,,,,,,,,,,,,,,,,,,,,,,,/muse/elements/blink
2020-07-10 14:47:23.115,0.6509204998542555,1.582306603671256,1.530304387935778,1.23805410413085,0.8064990010739508,0.9751812750375705,1.094103324353019,1.017006132812459,0.6940044434748374,0.7411733867097512,1.076971586917508,0.8608131073803733,0.8829211708973309,0.6839392206918428,0.8892241559519395,0.8825801790582378,0.6544334353285149,0.6792033115578723,1.472873053573927,0.7460255089025781,770,790.1465201465202,749.8534798534798,805.8608058608058,561.2820512820513,-0.055969,0.074219,1.008179,6.557159,-3.835602,6.347809,1,2,4,2,2,90.000000
2020-07-10 14:47:23.213,,,,,,,,,,,,,,,,,,,,,,,,,,,,,,,,,,,,,,/muse/elements/jaw_clench
2020-07-10 14:47:23.406,,,,,,,,,,,,,,,,,,,,,,,,,,,,,,,,,,,,,,/muse/elements/jaw_clench
2020-07-10 14:47:23.619,0.6509204998542555,1.582306603671256,1.530304387935778,1.23805410413085,0.8064990010739508,0.9751812750375705,1.094103324353019,1.017006132812459,0.6940044434748374,0.7411733867097512,1.076971586917508,0.8608131073803733,0.8829211708973309,0.6839392206918428,0.8892241559519395,0.8825801790582378,0.6544334353285149,0.6792033115578723,1.472873053573927,0.7460255089025781,792.1611721611722,833.2600732600733,894.908424908425,777.6556776556777,846.1538461538462,-0.009644,0.078491,0.999146,2.340240,-4.134674,0.530853,1,2,1,2,2,90.000000
2020-07-10 14:47:24.111,0.6509204998542555,1.582306603671256,1.530304387935778,1.23805410413085,0.8064990010739508,0.9751812750375705,1.094103324353019,1.017006132812459,0.6940044434748374,0.7411733867097512,1.076971586917508,0.8608131073803733,0.8829211708973309,0.6839392206918428,0.8892241559519395,0.8825801790582378,0.6544334353285149,0.6792033115578723,1.472873053573927,0.7460255089025781,717.2161172161173,830.4395604395604,992.8205128205128,692.6373626373627,1027.069597069597,0.014221,0.071289,0.989929,24.082794,1.181335,5.435638,1,2,1,2,2,90.000000
2020-07-10 14:47:24.208,,,,,,,,,,,,,,,,,,,,,,,,,,,,,,,,,,,,,,/muse/elements/jaw_clench
2020-07-10 14:47:24.316,,,,,,,,,,,,,,,,,,,,,,,,,,,,,,,,,,,,,,/muse/elements/blink
2020-07-10 14:47:24.611,0.6509204998542555,1.582306603671256,1.530304387935778,1.23805410413085,0.8064990010739508,0.9751812750375705,1.094103324353019,1.017006132812459,0.6940044434748374,0.7411733867097512,1.076971586917508,0.8608131073803733,0.8829211708973309,0.6839392206918428,0.8892241559519395,0.8825801790582378,0.6544334353285149,0.6792033115578723,1.472873053573927,0.7460255089025781,790.952380952381,766.3736263736264,883.2234432234433,741.3919413919414,634.2124542124542,0.022949,0.120422,1.004639,3.297272,-7.065582,0.127106,1,2,1,2,2,90.000000
2020-07-10 14:47:25.110,0.6509204998542555,1.582306603671256,1.530304387935778,1.23805410413085,0.8064990010739508,0.9751812750375705,1.094103324353019,1.017006132812459,0.6940044434748374,0.7411733867097512,1.076971586917508,0.8608131073803733,0.8829211708973309,0.6839392206918428,0.8892241559519395,0.8825801790582378,0.6544334353285149,0.6792033115578723,1.472873053573927,0.7460255089025781,786.9230769230769,805.0549450549451,1026.263736263736,739.7802197802198,679.3406593406594,0.012817,0.092651,0.981140,3.858032,-5.218811,-0.553284,1,2,1,2,2,90.000000
2020-07-10 14:47:25.610,0.6509204998542555,0.9742235990246796,1.530304387935778,1.23805410413085,0.8064990010739508,0.1860509597884875,1.094103324353019,1.017006132812459,0.6940044434748374,0.574892103152374,1.076971586917508,0.8608131073803733,0.8829211708973309,1.100118491096178,0.8892241559519395,0.8825801790582378,0.6544334353285149,1.255177433255122,1.472873053573927,0.7460255089025781,829.6336996336996,777.2527472527473,850.1831501831502,795.3846153846154,776.0439560439561,0.025330,0.088501,1.005249,4.493561,-2.407532,0.792542,1,2,1,2,2,90.000000
2020-07-10 14:47:25.632,,,,,,,,,,,,,,,,,,,,,,,,,,,,,,,,,,,,,,/muse/elements/blink
2020-07-10 14:47:26.120,0.6509204998542555,1.507541409678917,1.530304387935778,1.23805410413085,0.8064990010739508,0.9101122041997816,1.094103324353019,1.017006132812459,0.6940044434748374,1.195345148950432,1.076971586917508,0.8608131073803733,0.8829211708973309,1.075687909075798,0.8892241559519395,0.8825801790582378,0.6544334353285149,1.166823563974413,1.472873053573927,0.7460255089025781,757.1062271062272,715.2014652014652,940.8424908424909,747.032967032967,676.5201465201466,0.002197,0.074036,1.021362,13.824615,4.351501,3.798218,1,2,1,2,2,90.000000
2020-07-10 14:47:26.255,,,,,,,,,,,,,,,,,,,,,,,,,,,,,,,,,,,,,,/muse/elements/jaw_clench
2020-07-10 14:47:26.618,0.6509204998542555,1.507541409678917,1.530304387935778,1.23805410413085,0.8064990010739508,0.9101122041997816,1.094103324353019,1.017006132812459,0.6940044434748374,1.195345148950432,1.076971586917508,0.8608131073803733,0.8829211708973309,1.075687909075798,0.8892241559519395,0.8825801790582378,0.6544334353285149,1.166823563974413,1.472873053573927,0.7460255089025781,864.2857142857143,750.6593406593407,1030.695970695971,787.3260073260074,599.5604395604396,0.026245,0.051636,1.003418,-2.123413,-17.435913,19.746246,1,2,1,2,2,90.000000
2020-07-10 14:47:27.110,0.6509204998542555,1.729445815799356,1.530304387935778,1.23805410413085,0.8064990010739508,1.173257306425877,1.094103324353019,1.017006132812459,0.6940044434748374,1.195345148950432,1.076971586917508,0.8608131073803733,0.8829211708973309,1.1719947964818,0.8892241559519395,0.8825801790582378,0.6544334353285149,1.077669834829853,1.472873053573927,0.7460255089025781,791.7582417582418,811.9047619047619,665.6410256410256,787.7289377289378,1009.74358974359,-0.034729,0.096802,0.957214,-0.149536,-8.867493,-3.715973,1,2,1,2,2,90.000000
2020-07-10 14:47:27.477,,,,,,,,,,,,,,,,,,,,,,,,,,,,,,,,,,,,,,/muse/elements/blink
2020-07-10 14:47:27.626,0.6509204998542555,1.729445815799356,1.530304387935778,1.23805410413085,0.8064990010739508,1.173257306425877,1.094103324353019,1.017006132812459,0.6940044434748374,1.195345148950432,1.076971586917508,0.8608131073803733,0.8829211708973309,1.1719947964818,0.8892241559519395,0.8825801790582378,0.6544334353285149,1.077669834829853,1.472873053573927,0.7460255089025781,853.4065934065934,568.9377289377289,1078.644688644689,840.9157509157509,822.3809523809524,0.066589,0.067444,1.002869,5.689850,-0.306549,-7.932892,1,2,1,1,2,95.000000
2020-07-10 14:47:28.102,,,,,,,,,,,,,,,,,,,,,,,,,,,,,,,,,,,,,,/muse/elements/jaw_clench
2020-07-10 14:47:28.121,0.6509204998542555,1.729445815799356,1.530304387935778,1.23805410413085,0.8064990010739508,1.173257306425877,1.094103324353019,1.017006132812459,0.6940044434748374,1.195345148950432,1.076971586917508,0.8608131073803733,0.8829211708973309,1.1719947964818,0.8892241559519395,0.8825801790582378,0.6544334353285149,1.077669834829853,1.472873053573927,0.7460255089025781,1046.813186813187,1550.879120879121,1097.179487179487,1088.315018315018,711.1721611721612,-0.019043,0.180481,1.000916,-2.751465,3.050537,-0.755157,1,2,1,2,2,95.000000
2020-07-10 14:47:28.556,,,,,,,,,,,,,,,,,,,,,,,,,,,,,,,,,,,,,,/muse/elements/blink
2020-07-10 14:47:28.612,0.6509204998542555,1.729445815799356,1.530304387935778,1.23805410413085,0.8064990010739508,1.173257306425877,1.094103324353019,1.017006132812459,0.6940044434748374,1.195345148950432,1.076971586917508,0.8608131073803733,0.8829211708973309,1.1719947964818,0.8892241559519395,0.8825801790582378,0.6544334353285149,1.077669834829853,1.472873053573927,0.7460255089025781,1049.230769230769,930.7692307692308,1063.736263736264,1106.043956043956,825.2014652014652,-0.060547,0.055725,0.995178,6.616974,0.186920,2.422485,1,2,1,2,2,95.000000
2020-07-10 14:47:28.900,,,,,,,,,,,,,,,,,,,,,,,,,,,,,,,,,,,,,,/muse/elements/jaw_clench
2020-07-10 14:47:29.111,0.6509204998542555,1.729445815799356,1.530304387935778,1.23805410413085,0.8064990010739508,1.173257306425877,1.094103324353019,1.017006132812459,0.6940044434748374,1.195345148950432,1.076971586917508,0.8608131073803733,0.8829211708973309,1.1719947964818,0.8892241559519395,0.8825801790582378,0.6544334353285149,1.077669834829853,1.472873053573927,0.7460255089025781,863.8827838827839,888.0586080586081,786.5201465201466,870.3296703296703,685.7875457875458,0.020081,0.102051,0.990295,2.908478,-8.411407,-1.368256,1,2,2,1,2,95.000000
2020-07-10 14:47:29.610,0.6509204998542555,1.729445815799356,1.530304387935778,1.23805410413085,0.8064990010739508,1.173257306425877,1.094103324353019,1.017006132812459,0.6940044434748374,1.195345148950432,1.076971586917508,0.8608131073803733,0.8829211708973309,1.1719947964818,0.8892241559519395,0.8825801790582378,0.6544334353285149,1.077669834829853,1.472873053573927,0.7460255089025781,782.4908424908425,795.7875457875458,667.6556776556777,796.996336996337,740.5860805860806,-0.003113,0.111206,0.986328,3.768311,-3.267365,-0.112152,1,2,1,1,2,95.000000
2020-07-10 14:47:30.124,0.6509204998542555,1.729445815799356,1.530304387935778,1.23805410413085,0.8064990010739508,1.173257306425877,1.094103324353019,1.017006132812459,0.6940044434748374,1.195345148950432,1.076971586917508,0.8608131073803733,0.8829211708973309,1.1719947964818,0.8892241559519395,0.8825801790582378,0.6544334353285149,1.077669834829853,1.472873053573927,0.7460255089025781,756.3003663003664,875.1648351648352,701.0989010989011,776.0439560439561,749.4505494505495,0.029480,0.106873,1.003174,5.181427,-3.132782,-1.510315,1,2,1,1,2,95.000000
2020-07-10 14:47:30.610,1.91119868857813,1.729445815799356,1.530304387935778,2.140491627718808,0.7992900487776921,1.173257306425877,1.094103324353019,0.4517718391843769,1.055410333822794,1.195345148950432,1.076971586917508,0.9061499991479613,0.8545813084977861,1.1719947964818,0.8892241559519395,0.7945862107995099,0.5175723686779049,1.077669834829853,1.472873053573927,0.4603445509126176,814.3223443223443,804.6520146520147,736.5567765567765,807.8754578754579,642.2710622710623,-0.011841,0.085938,0.992432,-0.059814,-2.639313,11.955414,1,1,1,1,1,95.000000
2020-07-10 14:47:31.120,1.867161263107142,1.729445815799356,1.530304387935778,2.140491627718808,1.027641187275996,1.173257306425877,1.094103324353019,0.4517718391843769,1.059315641335356,1.195345148950432,1.076971586917508,0.9061499991479613,0.8307243486738211,1.1719947964818,0.8892241559519395,0.7945862107995099,0.5819791623776062,1.077669834829853,1.472873053573927,0.4603445509126176,785.3113553113553,853.8095238095239,740.989010989011,825.6043956043957,730.9157509157509,0.003601,0.083557,0.991577,20.464020,-2.280426,3.760834,1,1,1,1,1,95.000000
2020-07-10 14:47:31.220,,,,,,,,,,,,,,,,,,,,,,,,,,,,,,,,,,,,,,/muse/elements/blink
2020-07-10 14:47:31.612,1.721168877436189,1.729445815799356,1.530304387935778,2.140491627718808,1.079090048965562,1.173257306425877,1.094103324353019,0.4517718391843769,1.027878845661722,1.195345148950432,1.076971586917508,0.9061499991479613,0.7504565665063849,1.1719947964818,0.8892241559519395,0.7945862107995099,0.5775242615286477,1.077669834829853,1.472873053573927,0.4603445509126176,787.3260073260074,834.4688644688645,749.8534798534798,783.2967032967033,686.1904761904763,0.080322,0.037964,0.973022,17.727509,4.142151,2.183228,1,1,1,1,1,95.000000
2020-07-10 14:47:32.111,1.686476609471355,1.729445815799356,1.530304387935778,2.140491627718808,1.24006842166269,1.173257306425877,1.094103324353019,0.4517718391843769,1.000715777359727,1.195345148950432,1.076971586917508,0.9061499991479613,0.7588677547832254,1.1719947964818,0.8892241559519395,0.7945862107995099,0.6626870289567086,1.077669834829853,1.472873053573927,0.4603445509126176,782.893772893773,676.1172161172161,674.1025641025641,755.0915750915751,655.1648351648352,0.033386,0.061646,0.999146,7.274933,-0.515900,-1.764526,1,1,1,1,1,95.000000
2020-07-10 14:47:32.610,1.686476609471355,1.729445815799356,1.530304387935778,2.140491627718808,1.24006842166269,1.173257306425877,1.094103324353019,0.4517718391843769,1.000715777359727,1.195345148950432,1.076971586917508,0.9061499991479613,0.7588677547832254,1.1719947964818,0.8892241559519395,0.7945862107995099,0.6626870289567086,1.077669834829853,1.472873053573927,0.4603445509126176,768.7912087912088,812.3076923076924,682.967032967033,745.0183150183151,877.5824175824176,-0.032898,0.092041,1.023499,5.846863,-1.585083,-4.306641,1,1,1,1,1,95.000000
2020-07-10 14:47:33.110,1.642998592807246,1.729445815799356,1.530304387935778,2.140491627718808,0.4707618307888032,1.173257306425877,1.094103324353019,0.4517718391843769,0.7920306507283006,1.195345148950432,1.076971586917508,0.9061499991479613,1.17367781955782,1.1719947964818,0.8892241559519395,0.7945862107995099,0.8627540739425327,1.077669834829853,1.472873053573927,0.4603445509126176,730.9157509157509,726.0805860805862,667.2527472527473,712.3809523809524,1124.175824175824,-0.058716,0.096436,0.993652,5.136566,-0.620575,-1.024323,1,1,1,1,1,95.000000
2020-07-10 14:47:33.619,1.577264027670772,1.729445815799356,1.530304387935778,2.140491627718808,0.5262158544865853,1.173257306425877,1.094103324353019,0.4517718391843769,0.8011313483002185,1.195345148950432,1.076971586917508,0.9061499991479613,1.146172284397497,1.1719947964818,0.8892241559519395,0.7945862107995099,0.7308868874672064,1.077669834829853,1.472873053573927,0.4603445509126176,775.2380952380953,865.4945054945056,764.7619047619048,761.941391941392,852.1978021978023,-0.058899,0.072266,1.004333,3.820648,-2.205658,1.480408,1,1,1,1,1,95.000000
2020-07-10 14:47:34.112,1.523580079016077,1.729445815799356,1.530304387935778,2.140491627718808,0.458514829352056,1.173257306425877,1.094103324353019,0.4517718391843769,0.831340156462595,1.195345148950432,1.076971586917508,0.9061499991479613,1.059979814913139,1.1719947964818,0.8892241559519395,0.7945862107995099,0.6401604773799673,1.077669834829853,1.472873053573927,0.4603445509126176,769.1941391941392,859.8534798534798,777.6556776556777,782.893772893773,759.92673992674,-0.058533,0.067566,1.000305,7.835693,-7.110443,0.373840,1,1,1,1,1,95.000000
2020-07-10 14:47:34.610,1.635834613846119,1.729445815799356,1.530304387935778,2.140491627718808,0.3936935177394563,1.173257306425877,1.094103324353019,0.4517718391843769,0.7953996533512092,1.195345148950432,1.076971586917508,0.9061499991479613,0.9330651264899379,1.1719947964818,0.8892241559519395,0.7945862107995099,0.738622763006988,1.077669834829853,1.472873053573927,0.4603445509126176,828.021978021978,938.021978021978,807.8754578754579,865.4945054945056,747.032967032967,-0.015930,0.089233,1.008118,-1.413116,-8.284302,17.884521,1,1,1,1,1,95.000000
2020-07-10 14:47:35.110,1.744033293702463,1.729445815799356,1.530304387935778,2.140491627718808,0.7151249754249288,1.173257306425877,1.094103324353019,0.4517718391843769,0.7331659974147612,1.195345148950432,1.076971586917508,0.9061499991479613,0.7888060868209209,1.1719947964818,0.8892241559519395,0.7945862107995099,0.8024699024396607,1.077669834829853,1.472873053573927,0.4603445509126176,835.2747252747253,830.4395604395604,752.6739926739926,792.5641025641025,684.1758241758242,-0.012817,0.050354,1.001770,3.611298,-3.887939,1.039276,1,1,1,1,1,95.000000
2020-07-10 14:47:35.610,1.7684136273222,1.729445815799356,1.530304387935778,2.140491627718808,0.9085043850836122,1.173257306425877,1.094103324353019,0.4517718391843769,0.7557420647602988,1.195345148950432,1.076971586917508,0.9061499991479613,0.7225080350362042,1.1719947964818,0.8892241559519395,0.7945862107995099,0.8223905532807838,1.077669834829853,1.472873053573927,0.4603445509126176,809.0842490842491,838.4981684981685,751.4652014652015,765.5677655677656,751.8681318681319,-0.017639,0.042297,0.998413,2.609406,-3.730927,1.001892,1,1,1,1,1,95.000000
2020-07-10 14:47:36.121,1.667848451029424,1.729445815799356,1.375373815596017,1.545243507234159,0.9393213908849897,1.173257306425877,0.2842971383101278,0.4157305686689507,0.7522175173320852,1.195345148950432,0.4825321778259609,0.7394595220946532,0.6989260824278587,1.1719947964818,0.9870666521233288,0.944055558510161,0.520241894470978,1.077669834829853,1.63386977439351,0.7269416370748631,703.919413919414,751.4652014652015,587.8754578754579,693.040293040293,857.032967032967,-0.027039,0.084412,1.012512,8.246918,-0.485992,-11.626434,1,1,1,1,1,95.000000
2020-07-10 14:47:36.616,1.976421876820252,1.729445815799356,1.375373815596017,1.545243507234159,0.8922300664097645,1.173257306425877,0.2842971383101278,0.4157305686689507,1.058236080725717,1.195345148950432,0.4825321778259609,0.7394595220946532,0.7660646248029134,1.1719947964818,0.9870666521233288,0.944055558510161,0.4555111525635939,1.077669834829853,1.63386977439351,0.7269416370748631,820.7692307692308,894.908424908425,854.2124542124542,792.967032967033,751.4652014652015,-0.065613,0.069763,0.988464,3.514099,-9.585266,-8.007660,1,1,1,1,1,95.000000
2020-07-10 14:47:37.120,2.070812271508902,1.729445815799356,1.295591440164217,1.545243507234159,0.7167875058046016,1.173257306425877,0.1767280055504586,0.4157305686689507,1.058236080725717,1.195345148950432,0.4287702277858677,0.7394595220946532,0.8751636766292917,1.1719947964818,0.9739984424831578,0.944055558510161,0.5841477248451868,1.077669834829853,1.644815157125374,0.7269416370748631,984.3589743589744,975.4945054945056,1029.89010989011,999.2673992673992,795.3846153846154,-0.004883,0.104736,1.009094,8.441315,-7.102966,-4.172058,1,1,1,1,1,95.000000
2020-07-10 14:47:37.217,,,,,,,,,,,,,,,,,,,,,,,,,,,,,,,,,,,,,,/muse/elements/blink
2020-07-10 14:47:37.620,2.207704753816881,1.729445815799356,1.295591440164217,1.545243507234159,0.7974102118950132,1.173257306425877,0.1767280055504586,0.4157305686689507,1.058236080725717,1.195345148950432,0.4287702277858677,0.7394595220946532,0.9310463621593568,1.1719947964818,0.9739984424831578,0.944055558510161,0.7250279400822398,1.077669834829853,1.644815157125374,0.7269416370748631,708.7545787545788,595.934065934066,618.0952380952381,719.2307692307693,757.5091575091575,-0.014282,0.097717,0.997803,1.614990,1.786957,8.089905,1,1,1,1,1,95.000000
2020-07-10 14:47:37.842,,,,,,,,,,,,,,,,,,,,,,,,,,,,,,,,,,,,,,/muse/elements/jaw_clench
2020-07-10 14:47:38.117,1.986576108026332,1.729445815799356,1.295591440164217,1.545243507234159,0.412326667788994,1.173257306425877,0.1767280055504586,0.4157305686689507,0.6863652184946633,1.195345148950432,0.4287702277858677,0.7394595220946532,0.9439833867819851,1.1719947964818,0.9739984424831578,0.944055558510161,0.7833745977033575,1.077669834829853,1.644815157125374,0.7269416370748631,761.1355311355312,775.6410256410256,701.0989010989011,721.2454212454213,633.8095238095239,-0.045593,0.099121,0.978760,3.469238,-1.211243,2.788849,1,1,1,1,1,95.000000
2020-07-10 14:47:38.610,1.986576108026332,1.729445815799356,1.295591440164217,1.545243507234159,0.412326667788994,1.173257306425877,0.1767280055504586,0.4157305686689507,0.6863652184946633,1.195345148950432,0.4287702277858677,0.7394595220946532,0.9439833867819851,1.1719947964818,0.9739984424831578,0.944055558510161,0.7833745977033575,1.077669834829853,1.644815157125374,0.7269416370748631,772.8205128205128,834.0659340659341,750.2564102564103,774.8351648351648,612.0512820512821,-0.085144,0.085693,0.989868,2.041168,-0.785065,-1.128998,1,1,1,1,1,95.000000
2020-07-10 14:47:38.638,,,,,,,,,,,,,,,,,,,,,,,,,,,,,,,,,,,,,,/muse/elements/jaw_clench
2020-07-10 14:47:39.110,0.9709828049632316,1.729445815799356,1.373627243763799,1.528570894841977,0.7521652972694762,1.173257306425877,0.8916965081901451,1.032734097271659,0.7877534298944743,1.195345148950432,1.285167616933288,1.230188457159528,0.9642149270642733,1.1719947964818,0.9348540439406395,0.991315394784718,0.3056863910990808,1.077669834829853,1.674803103001705,0.3876493417060657,758.3150183150184,720.0366300366301,649.5238095238095,740.5860805860806,1109.67032967033,-0.082214,0.057068,1.008606,-4.605713,-12.269440,-1.570129,1,1,1,1,1,95.000000
2020-07-10 14:47:39.610,1.002431083418217,1.729445815799356,1.405196299124489,1.482737923428045,0.7884839041272942,1.173257306425877,1.033617829627707,1.011743959928648,0.8637589754329402,1.195345148950432,1.370715116076261,1.232006129519478,0.9315857842194389,1.1719947964818,0.9697783242385118,0.9898852864847444,0.3787418321245706,1.077669834829853,1.672541240630951,0.4254719629592301,755.8974358974359,940.4395604395605,768.7912087912088,614.4688644688645,706.7399267399268,-0.172791,0.131714,1.013367,7.790833,-13.518066,3.147736,1,1,1,1,1,95.000000
2020-07-10 14:47:40.110,1.159671086153969,1.729445815799356,1.409788778777019,1.482737923428045,0.967675182067432,1.173257306425877,1.085829580372622,1.011743959928648,0.9718236759353982,1.195345148950432,1.370715116076261,1.232006129519478,0.987819834921347,1.1719947964818,0.978603138420934,0.9898852864847444,0.5725169486695034,1.077669834829853,1.678339068812113,0.4254719629592301,766.7765567765568,802.6373626373627,692.6373626373627,717.6190476190476,975.0915750915751,-0.118042,0.122070,1.017761,-1.674805,-9.936676,-1.644897,1,1,1,1,1,95.000000
2020-07-10 14:47:40.610,1.449658720158231,1.729445815799356,1.455558961990555,1.509509245295712,1.045238426870309,1.173257306425877,1.231256717358512,0.8716634889836747,1.119924366973323,1.195345148950432,1.370715116076261,1.196383977319209,0.968269644684271,1.1719947964818,1.010395116141162,0.9454488241995838,0.7286840570612346,1.077669834829853,1.683374549465452,0.4497152799708855,828.021978021978,786.9230769230769,695.0549450549451,723.6630036630037,766.7765567765568,0.030090,-0.047546,1.014771,6.953430,-6.803894,-4.658051,1,1,1,1,1,95.000000
2020-07-10 14:47:41.110,1.815984679065913,1.729445815799356,1.455558961990555,1.509509245295712,0.9842033792846112,1.173257306425877,1.231256717358512,0.8716634889836747,1.144746388644593,1.195345148950432,1.370715116076261,1.196383977319209,1.011815638119697,1.1719947964818,1.010395116141162,0.9454488241995838,0.7807766642439904,1.077669834829853,1.683374549465452,0.4497152799708855,842.1245421245421,721.2454212454213,667.6556776556777,803.4432234432235,693.040293040293,0.057617,0.048767,1.014832,19.581757,-17.077026,-38.737335,1,1,1,1,1,95.000000
2020-07-10 14:47:41.610,1.824859056356682,1.729445815799356,1.455558961990555,1.509509245295712,0.8508829822362806,1.173257306425877,1.231256717358512,0.8716634889836747,1.150895435774482,1.195345148950432,1.370715116076261,1.196383977319209,0.9283274196629753,1.1719947964818,1.010395116141162,0.9454488241995838,0.7316414963171802,1.077669834829853,1.683374549465452,0.4497152799708855,720.8424908424909,913.8461538461539,641.4652014652015,634.6153846153846,920.6959706959707,0.008606,0.063538,1.006470,5.734711,3.715973,1.555176,1,1,1,1,1,95.000000
2020-07-10 14:47:41.953,,,,,,,,,,,,,,,,,,,,,,,,,,,,,,,,,,,,,,/muse/elements/blink
2020-07-10 14:47:42.114,1.956515858836877,1.729445815799356,1.455558961990555,1.509509245295712,0.5397227905749555,1.173257306425877,1.231256717358512,0.8716634889836747,0.8516392676290404,1.195345148950432,1.370715116076261,1.196383977319209,0.967428595396873,1.1719947964818,1.010395116141162,0.9454488241995838,0.659852499035527,1.077669834829853,1.683374549465452,0.4497152799708855,821.1721611721612,763.1501831501831,657.985347985348,817.1428571428571,780.0732600732601,-0.120483,0.052307,0.992798,2.893524,-3.132782,2.743988,1,1,1,1,1,95.000000
2020-07-10 14:47:42.610,1.961074529076877,1.729445815799356,1.455558961990555,1.509509245295712,0.4731781747720033,1.173257306425877,1.231256717358512,0.8716634889836747,0.8346707991624435,1.195345148950432,1.370715116076261,1.196383977319209,0.9126717151236209,1.1719947964818,1.010395116141162,0.9454488241995838,0.6187023800941838,1.077669834829853,1.683374549465452,0.4497152799708855,695.8608058608058,654.7619047619048,508.4981684981685,671.2820512820513,695.0549450549451,-0.019409,0.065125,1.000854,4.187012,-3.072968,1.136475,1,1,1,1,1,95.000000
2020-07-10 14:47:43.110,1.961074529076877,1.729445815799356,1.455558961990555,1.509509245295712,0.4731781747720033,1.173257306425877,1.231256717358512,0.8716634889836747,0.8346707991624435,1.195345148950432,1.370715116076261,1.196383977319209,0.9126717151236209,1.1719947964818,1.010395116141162,0.9454488241995838,0.6187023800941838,1.077669834829853,1.683374549465452,0.4497152799708855,720.0366300366301,1214.029304029304,759.1208791208792,672.893772893773,569.3406593406594,-0.006226,0.006470,1.005920,4.523468,-5.846863,3.843079,1,1,1,1,1,95.000000
2020-07-10 14:47:43.116,,,,,,,,,,,,,,,,,,,,,,,,,,,,,,,,,,,,,,/muse/elements/blink
2020-07-10 14:47:43.618,1.961074529076877,1.729445815799356,1.455558961990555,1.509509245295712,0.4731781747720033,1.173257306425877,1.231256717358512,0.8716634889836747,0.8346707991624435,1.195345148950432,1.370715116076261,1.196383977319209,0.9126717151236209,1.1719947964818,1.010395116141162,0.9454488241995838,0.6187023800941838,1.077669834829853,1.683374549465452,0.4497152799708855,842.9304029304029,1113.296703296703,618.901098901099,805.4578754578755,561.6849816849817,0.042664,-0.002686,1.011841,4.127197,-1.607513,1.981354,1,1,4,1,1,95.000000
2020-07-10 14:47:44.121,1.961074529076877,1.729445815799356,1.455558961990555,1.509509245295712,0.4731781747720033,1.173257306425877,1.231256717358512,0.8716634889836747,0.8346707991624435,1.195345148950432,1.370715116076261,1.196383977319209,0.9126717151236209,1.1719947964818,1.010395116141162,0.9454488241995838,0.6187023800941838,1.077669834829853,1.683374549465452,0.4497152799708855,809.0842490842491,726.8864468864469,627.3626373626374,745.4212454212454,743.4065934065934,-0.045715,0.042053,1.003479,7.117920,3.917847,-0.613098,1,2,2,1,2,95.000000
2020-07-10 14:47:44.619,1.961074529076877,1.729445815799356,1.455558961990555,1.509509245295712,0.4731781747720033,1.173257306425877,1.231256717358512,0.8716634889836747,0.8346707991624435,1.195345148950432,1.370715116076261,1.196383977319209,0.9126717151236209,1.1719947964818,1.010395116141162,0.9454488241995838,0.6187023800941838,1.077669834829853,1.683374549465452,0.4497152799708855,766.7765567765568,888.0586080586081,676.1172161172161,764.3589743589744,871.5384615384615,-0.054138,0.038696,0.998596,3.723450,-5.241241,-0.059814,1,2,2,1,2,95.000000
2020-07-10 14:47:45.110,1.961074529076877,1.729445815799356,1.455558961990555,1.509509245295712,0.4731781747720033,1.173257306425877,1.231256717358512,0.8716634889836747,0.8346707991624435,1.195345148950432,1.370715116076261,1.196383977319209,0.9126717151236209,1.1719947964818,1.010395116141162,0.9454488241995838,0.6187023800941838,1.077669834829853,1.683374549465452,0.4497152799708855,801.4285714285714,822.7838827838829,635.4212454212454,802.2344322344322,692.2344322344322,-0.049255,0.055176,0.997314,6.646881,-7.917938,-2.729034,1,2,1,1,2,95.000000
2020-07-10 14:47:45.610,1.48052111032247,1.729445815799356,1.455558961990555,1.54124671997167,0.7687314030593526,1.173257306425877,1.231256717358512,0.6280742132705716,1.024120170765312,1.195345148950432,1.370715116076261,1.264275653881326,1.062113441386926,1.1719947964818,1.010395116141162,1.551274390740392,0.7811145147218123,1.077669834829853,1.683374549465452,1.01708126929647,810.6959706959707,784.1025641025641,703.1135531135532,804.6520146520147,591.9047619047619,-0.050354,0.105347,0.990784,3.372040,-2.026215,-2.115936,1,1,2,1,1,95.000000
2020-07-10 14:47:46.110,1.674941969317544,1.729445815799356,1.455558961990555,1.639101757520375,0.8585393454942295,1.173257306425877,1.231256717358512,0.8973935612938158,1.106589206025589,1.195345148950432,1.370715116076261,1.318653633780388,1.062935937728115,1.1719947964818,1.010395116141162,1.41320244656573,0.7662835883017958,1.077669834829853,1.683374549465452,0.9226426825624504,790.5494505494506,840.9157509157509,806.6666666666667,765.5677655677656,603.5897435897436,-0.044312,0.099121,0.992188,1.570129,-5.899200,1.233673,1,1,1,1,1,95.000000
2020-07-10 14:47:46.610,1.697800599272041,1.729445815799356,1.455558961990555,1.672681077800648,0.771813260666364,1.173257306425877,1.231256717358512,0.8098067937647178,1.106589206025589,1.195345148950432,1.370715116076261,1.314511875485309,1.013539873523435,1.1719947964818,1.010395116141162,1.267822438598595,0.7111201473002722,1.077669834829853,1.683374549465452,0.8450057750477287,795.7875457875458,679.3406593406594,674.9084249084249,783.2967032967033,900.1465201465202,-0.032715,0.115845,1.000549,2.213135,-3.730927,0.134583,1,1,1,1,1,95.000000
2020-07-10 14:47:46.830,,,,,,,,,,,,,,,,,,,,,,,,,,,,,,,,,,,,,,/muse/elements/blink
2020-07-10 14:47:47.125,1.719890091534002,1.729445815799356,1.470273017381445,1.677263083169158,0.7378162874054806,1.173257306425877,0.7459665273826509,0.8353279665092015,1.104489171539858,1.195345148950432,0.5403284819752597,1.137916567058174,0.984971932789857,1.1719947964818,0.9326337124217579,1.115165635043073,0.6584810353964348,1.077669834829853,1.733976090939375,0.7816339608054572,810.6959706959707,803.040293040293,624.1391941391942,790.5494505494506,720.4395604395604,-0.038696,0.104309,0.999817,2.302856,-5.450592,2.392578,1,1,1,1,1,95.000000
2020-07-10 14:47:47.614,1.566411774539487,1.729445815799356,1.470273017381445,1.653576698902453,0.3863416232561379,1.173257306425877,0.7459665273826509,0.5484512793046842,0.8104327387555209,1.195345148950432,0.5403284819752597,0.9599852429484427,0.9058727008290229,1.1719947964818,0.9326337124217579,0.9436403053274431,0.5707872635709289,1.077669834829853,1.733976090939375,0.7379918940966097,782.4908424908425,759.1208791208792,710.3663003663004,787.7289377289378,778.8644688644689,-0.006287,0.071228,1.001404,-1.226196,-3.656158,7.611389,1,1,1,1,1,95.000000
2020-07-10 14:47:48.110,1.415008680534547,1.729445815799356,1.774530125689994,1.828310700892429,0.6257313588819974,1.173257306425877,0.8362208752133766,0.9689390233902968,1.029194854799953,1.195345148950432,0.7134002557568415,1.305842589335485,0.8842889611252046,1.1719947964818,0.9933130362650012,0.8508664612769982,0.6649332192626366,1.077669834829853,1.76756116303419,0.7721441477128305,767.985347985348,668.8644688644689,661.2087912087912,711.5750915750916,883.6263736263736,-0.038330,0.039551,1.019409,3.028107,-3.925323,2.340240,1,1,1,1,1,95.000000
2020-07-10 14:47:48.462,,,,,,,,,,,,,,,,,,,,,,,,,,,,,,,,,,,,,,/muse/elements/blink
2020-07-10 14:47:48.610,1.505045922356012,1.729445815799356,1.930255912243223,1.946880723410241,0.696657654775068,1.173257306425877,0.9611231213426287,1.03350387853463,0.9768748371684476,1.195345148950432,0.7869525354297624,1.271041710747764,0.8652653151574596,1.1719947964818,1.017299887685949,0.8548727561799349,0.6869297072309027,1.077669834829853,1.799492393893943,0.7666498430022011,796.5934065934066,601.5750915750916,656.3736263736264,746.6300366300367,764.3589743589744,-0.032715,0.047668,1.003174,4.673004,-2.796326,-1.031799,1,1,1,1,1,100.000000
2020-07-10 14:47:48.877,,,,,,,,,,,,,,,,,,,,,,,,,,,,,,,,,,,,,,/muse/elements/blink
2020-07-10 14:47:49.110,1.505045922356012,1.729445815799356,1.930255912243223,1.946880723410241,0.696657654775068,1.173257306425877,0.9611231213426287,1.03350387853463,0.9768748371684476,1.195345148950432,0.7869525354297624,1.271041710747764,0.8652653151574596,1.1719947964818,1.017299887685949,0.8548727561799349,0.6869297072309027,1.077669834829853,1.799492393893943,0.7666498430022011,585.8608058608058,1009.74358974359,691.8315018315019,977.1062271062272,639.4505494505495,0.011536,-0.095947,1.000549,-1.106567,-9.562836,5.016937,1,1,1,1,1,100.000000
2020-07-10 14:47:49.620,1.520415579156111,1.729445815799356,1.930255912243223,1.996935097240792,0.7072170875344412,1.173257306425877,0.9611231213426287,1.024622907136672,0.9429720060418477,1.195345148950432,0.7869525354297624,1.231860498945979,0.8126435798336632,1.1719947964818,1.017299887685949,0.8904068566063565,0.6690575993139658,1.077669834829853,1.799492393893943,0.7448281968280304,731.7216117216118,861.8681318681319,762.3443223443223,636.2271062271062,686.996336996337,-0.009277,0.010986,0.954651,34.789581,4.097290,-28.980103,1,1,4,1,1,100.000000
2020-07-10 14:47:49.804,,,,,,,,,,,,,,,,,,,,,,,,,,,,,,,,,,,,,,/muse/elements/blink
2020-07-10 14:47:50.118,1.520415579156111,1.729445815799356,1.930255912243223,1.996935097240792,0.7072170875344412,1.173257306425877,0.9611231213426287,1.024622907136672,0.9429720060418477,1.195345148950432,0.7869525354297624,1.231860498945979,0.8126435798336632,1.1719947964818,1.017299887685949,0.8904068566063565,0.6690575993139658,1.077669834829853,1.799492393893943,0.7448281968280304,956.1538461538462,1185.018315018315,611.2454212454213,921.0989010989011,667.2527472527473,-0.053711,0.085999,0.989868,5.173950,-6.258087,-0.777588,1,1,4,2,1,100.000000
2020-07-10 14:47:50.215,,,,,,,,,,,,,,,,,,,,,,,,,,,,,,,,,,,,,,/muse/elements/blink
2020-07-10 14:47:50.623,1.520415579156111,1.729445815799356,1.930255912243223,1.996935097240792,0.7072170875344412,1.173257306425877,0.9611231213426287,1.024622907136672,0.9429720060418477,1.195345148950432,0.7869525354297624,1.231860498945979,0.8126435798336632,1.1719947964818,1.017299887685949,0.8904068566063565,0.6690575993139658,1.077669834829853,1.799492393893943,0.7448281968280304,1125.787545787546,1180.586080586081,1085.897435897436,1113.699633699634,935.2014652014652,0.006531,0.111694,0.986816,5.345917,-3.147736,-1.300964,1,1,4,2,1,100.000000
2020-07-10 14:47:50.714,,,,,,,,,,,,,,,,,,,,,,,,,,,,,,,,,,,,,,/muse/elements/blink
2020-07-10 14:47:50.714,,,,,,,,,,,,,,,,,,,,,,,,,,,,,,,,,,,,,,/muse/elements/jaw_clench
2020-07-10 14:47:51.112,1.520415579156111,1.729445815799356,1.930255912243223,1.996935097240792,0.7072170875344412,1.173257306425877,0.9611231213426287,1.024622907136672,0.9429720060418477,1.195345148950432,0.7869525354297624,1.231860498945979,0.8126435798336632,1.1719947964818,1.017299887685949,0.8904068566063565,0.6690575993139658,1.077669834829853,1.799492393893943,0.7448281968280304,854.2124542124542,830.0366300366301,562.4908424908425,835.2747252747253,660.4029304029305,-0.095154,0.072632,0.988953,-3.431854,0.299072,-2.586975,1,2,2,2,2,100.000000
2020-07-10 14:47:51.445,,,,,,,,,,,,,,,,,,,,,,,,,,,,,,,,,,,,,,/muse/elements/jaw_clench
2020-07-10 14:47:51.611,1.520415579156111,1.729445815799356,1.930255912243223,1.996935097240792,0.7072170875344412,1.173257306425877,0.9611231213426287,1.024622907136672,0.9429720060418477,1.195345148950432,0.7869525354297624,1.231860498945979,0.8126435798336632,1.1719947964818,1.017299887685949,0.8904068566063565,0.6690575993139658,1.077669834829853,1.799492393893943,0.7448281968280304,787.3260073260074,988.3882783882784,673.2967032967033,783.2967032967033,655.1648351648352,-0.103699,0.045776,1.003784,3.147736,-0.710297,9.944153,1,2,4,2,2,100.000000
2020-07-10 14:47:51.617,,,,,,,,,,,,,,,,,,,,,,,,,,,,,,,,,,,,,,/muse/elements/blink
2020-07-10 14:47:52.071,,,,,,,,,,,,,,,,,,,,,,,,,,,,,,,,,,,,,,/muse/elements/jaw_clench
2020-07-10 14:47:52.111,1.520415579156111,1.729445815799356,1.930255912243223,1.996935097240792,0.7072170875344412,1.173257306425877,0.9611231213426287,1.024622907136672,0.9429720060418477,1.195345148950432,0.7869525354297624,1.231860498945979,0.8126435798336632,1.1719947964818,1.017299887685949,0.8904068566063565,0.6690575993139658,1.077669834829853,1.799492393893943,0.7448281968280304,857.8388278388279,832.0512820512821,904.1758241758242,832.8571428571429,624.1391941391942,-0.099243,0.037842,0.986389,3.244934,-4.508514,5.084229,1,2,4,1,2,100.000000
2020-07-10 14:47:52.223,,,,,,,,,,,,,,,,,,,,,,,,,,,,,,,,,,,,,,/muse/elements/blink
2020-07-10 14:47:52.610,1.520415579156111,1.729445815799356,1.930255912243223,1.996935097240792,0.7072170875344412,1.173257306425877,0.9611231213426287,1.024622907136672,0.9429720060418477,1.195345148950432,0.7869525354297624,1.231860498945979,0.8126435798336632,1.1719947964818,1.017299887685949,0.8904068566063565,0.6690575993139658,1.077669834829853,1.799492393893943,0.7448281968280304,836.4835164835165,798.6080586080586,712.3809523809524,862.6739926739926,778.0586080586081,-0.063171,0.124329,0.988281,-0.934601,-3.910370,-0.971985,1,2,2,1,2,100.000000
2020-07-10 14:47:52.911,,,,,,,,,,,,,,,,,,,,,,,,,,,,,,,,,,,,,,/muse/elements/jaw_clench
2020-07-10 14:47:53.120,1.520415579156111,1.729445815799356,1.930255912243223,1.996935097240792,0.7072170875344412,1.173257306425877,0.9611231213426287,1.024622907136672,0.9429720060418477,1.195345148950432,0.7869525354297624,1.231860498945979,0.8126435798336632,1.1719947964818,1.017299887685949,0.8904068566063565,0.6690575993139658,1.077669834829853,1.799492393893943,0.7448281968280304,724.8717948717949,0,743.0036630036631,702.3076923076924,691.025641025641,0.004089,0.085449,1.013184,4.299164,0.067291,-16.710663,1,2,2,1,2,100.000000
2020-07-10 14:47:53.278,,,,,,,,,,,,,,,,,,,,,,,,,,,,,,,,,,,,,,/muse/elements/blink
2020-07-10 14:47:53.456,,,,,,,,,,,,,,,,,,,,,,,,,,,,,,,,,,,,,,/muse/elements/jaw_clench
2020-07-10 14:47:53.619,1.520415579156111,1.729445815799356,1.930255912243223,1.996935097240792,0.7072170875344412,1.173257306425877,0.9611231213426287,1.024622907136672,0.9429720060418477,1.195345148950432,0.7869525354297624,1.231860498945979,0.8126435798336632,1.1719947964818,1.017299887685949,0.8904068566063565,0.6690575993139658,1.077669834829853,1.799492393893943,0.7448281968280304,805.4578754578755,959.7802197802198,849.3772893772895,813.919413919414,851.7948717948718,-0.041443,0.079651,1.015015,6.631927,0.314026,-3.446808,1,2,4,1,2,100.000000
2020-07-10 14:47:54.114,1.520415579156111,1.729445815799356,1.930255912243223,1.996935097240792,0.7072170875344412,1.173257306425877,0.9611231213426287,1.024622907136672,0.9429720060418477,1.195345148950432,0.7869525354297624,1.231860498945979,0.8126435798336632,1.1719947964818,1.017299887685949,0.8904068566063565,0.6690575993139658,1.077669834829853,1.799492393893943,0.7448281968280304,950.1098901098901,921.5018315018315,959.3772893772895,922.7106227106227,628.1684981684982,-0.021179,0.089539,1.009521,5.981445,-5.286102,1.614990,1,2,1,1,2,100.000000
2020-07-10 14:47:54.147,,,,,,,,,,,,,,,,,,,,,,,,,,,,,,,,,,,,,,/muse/elements/jaw_clench
2020-07-10 14:47:54.611,1.520415579156111,1.729445815799356,1.930255912243223,1.996935097240792,0.7072170875344412,1.173257306425877,0.9611231213426287,1.024622907136672,0.9429720060418477,1.195345148950432,0.7869525354297624,1.231860498945979,0.8126435798336632,1.1719947964818,1.017299887685949,0.8904068566063565,0.6690575993139658,1.077669834829853,1.799492393893943,0.7448281968280304,717.6190476190476,756.3003663003664,814.7252747252747,701.5018315018315,519.3772893772893,-0.041260,0.060120,0.978333,0.986938,-3.237457,3.005676,1,2,2,1,2,100.000000
2020-07-10 14:47:55.110,1.520415579156111,1.729445815799356,1.930255912243223,1.996935097240792,0.7072170875344412,1.173257306425877,0.9611231213426287,1.024622907136672,0.9429720060418477,1.195345148950432,0.7869525354297624,1.231860498945979,0.8126435798336632,1.1719947964818,1.017299887685949,0.8904068566063565,0.6690575993139658,1.077669834829853,1.799492393893943,0.7448281968280304,753.4798534798535,803.4432234432235,852.1978021978023,735.7509157509157,985.9706959706961,-0.029053,0.086121,0.999878,4.620667,-3.087921,-1.024323,1,2,1,1,2,100.000000
2020-07-10 14:47:55.183,,,,,,,,,,,,,,,,,,,,,,,,,,,,,,,,,,,,,,/muse/elements/jaw_clench
2020-07-10 14:47:55.609,1.520415579156111,1.729445815799356,1.930255912243223,1.996935097240792,0.7072170875344412,1.173257306425877,0.9611231213426287,1.024622907136672,0.9429720060418477,1.195345148950432,0.7869525354297624,1.231860498945979,0.8126435798336632,1.1719947964818,1.017299887685949,0.8904068566063565,0.6690575993139658,1.077669834829853,1.799492393893943,0.7448281968280304,759.5238095238095,728.0952380952381,761.941391941392,772.8205128205128,963.8095238095239,-0.026367,0.079285,0.999878,5.428162,-3.835602,-0.829926,1,2,1,1,2,100.000000
2020-07-10 14:47:55.784,,,,,,,,,,,,,,,,,,,,,,,,,,,,,,,,,,,,,,/muse/elements/jaw_clench
2020-07-10 14:47:56.116,1.18509733158096,1.729445815799356,1.930255912243223,1.512774262259942,0.7415892618546589,1.173257306425877,0.9611231213426287,1.061547213184433,0.6228199063907733,1.195345148950432,0.7869525354297624,0.5507055487242,0.6776487218453239,1.1719947964818,1.017299887685949,0.8914183832351092,0.4757874574638458,1.077669834829853,1.799492393893943,0.4029595029928276,776.8498168498169,779.2673992673992,745.8241758241759,737.7655677655678,666.4468864468864,-0.024170,0.089478,0.993713,5.001984,-3.155212,-1.300964,1,1,1,1,1,100.000000
2020-07-10 14:47:56.620,1.071514067752611,1.729445815799356,1.497552629752849,1.460145968819599,0.6685343638323039,1.173257306425877,0.7744308451625752,0.8403265682307856,0.6486181834984663,1.195345148950432,0.9897149254407563,0.6710659388155242,0.6093537645960538,1.1719947964818,1.005489313581453,0.7791499911844645,0.4656392907791703,1.077669834829853,1.82779321719965,0.4596166575405946,802.2344322344322,842.5274725274726,921.9047619047619,789.3406593406594,814.3223443223443,-0.010376,0.092163,1.005188,3.626251,-3.992615,-0.388794,1,1,1,1,1,100.000000
2020-07-10 14:47:56.912,,,,,,,,,,,,,,,,,,,,,,,,,,,,,,,,,,,,,,/muse/elements/jaw_clench
2020-07-10 14:47:57.110,1.15822937244828,1.729445815799356,1.561482624845369,1.587054590520316,0.6960399531349681,1.173257306425877,0.7664775847771585,0.8111482469786003,0.8579001773022091,1.195345148950432,1.059106905568662,1.049046406858781,0.7110297874686383,1.1719947964818,1.051250603677578,0.8426777939835433,0.5064657753632675,1.077669834829853,1.849447889132235,0.4677010996383024,815.934065934066,740.5860805860806,689.4139194139194,823.1868131868132,1047.216117216117,-0.008301,0.094421,0.999512,4.246826,-4.403839,-0.134583,1,1,1,1,1,100.000000
2020-07-10 14:47:57.441,,,,,,,,,,,,,,,,,,,,,,,,,,,,,,,,,,,,,,/muse/elements/jaw_clench
2020-07-10 14:47:57.610,1.313337012682724,1.729445815799356,1.569664022030899,1.649852475792207,0.6496914049953169,1.173257306425877,0.7664472751325413,0.5830006459612406,0.8950687441538838,1.195345148950432,1.059106905568662,1.100968404625022,0.8217545124128444,1.1719947964818,1.053727787170124,0.7781355773230769,0.6356519450948326,1.077669834829853,1.856477014829854,0.6171444830697322,793.3699633699634,809.0842490842491,863.8827838827839,796.1904761904763,842.9304029304029,-0.015198,0.095398,0.996643,3.446808,-2.901001,-1.831818,1,1,1,1,1,100.000000
2020-07-10 14:47:58.110,1.328907552051847,1.729445815799356,1.640293239985813,1.658119179011184,0.7005568677217203,1.173257306425877,0.7577873969150682,0.5918579260749827,0.9457595694495884,1.195345148950432,1.049161674921324,1.10848271920193,0.9548611847409944,1.1719947964818,1.110263424245158,0.8466430008079298,0.6804059631400119,1.077669834829853,1.887530383221414,0.6001357578478768,778.4615384615385,817.1428571428571,887.6556776556777,735.3479853479854,771.6117216117216,0.002502,0.082153,0.987305,3.603821,-4.104767,0.897217,1,1,1,1,1,100.000000
2020-07-10 14:47:58.224,,,,,,,,,,,,,,,,,,,,,,,,,,,,,,,,,,,,,,/muse/elements/jaw_clench
2020-07-10 14:47:58.610,1.734873297140348,1.729445815799356,1.640293239985813,1.677600906270678,0.7578321595641536,1.173257306425877,0.7577873969150682,0.5767163697951346,1.04301194202353,1.195345148950432,1.049161674921324,1.139560393875148,0.9719706010858362,1.1719947964818,1.110263424245158,0.9018304231673258,0.7516893418584124,1.077669834829853,1.887530383221414,0.6506374147991224,845.3479853479854,813.919413919414,863.4798534798535,830.0366300366301,873.1501831501831,-0.006775,0.094788,1.004822,4.822540,-6.347809,1.001892,1,1,1,1,1,95.000000
2020-07-10 14:47:58.743,,,,,,,,,,,,,,,,,,,,,,,,,,,,,,,,,,,,,,/muse/elements/blink
2020-07-10 14:47:59.002,,,,,,,,,,,,,,,,,,,,,,,,,,,,,,,,,,,,,,/muse/elements/jaw_clench
2020-07-10 14:47:59.117,1.823303429769649,1.729445815799356,1.640293239985813,1.643798319332905,0.8303630169013634,1.173257306425877,0.7577873969150682,0.6894406207361957,1.039191251420117,1.195345148950432,1.049161674921324,1.073867406913086,0.9674634060909891,1.1719947964818,1.110263424245158,1.012745368424635,0.710551901076502,1.077669834829853,1.887530383221414,0.5146892470641797,780.4761904761905,823.1868131868132,906.996336996337,757.5091575091575,585.0549450549451,0.008545,0.094482,0.993774,4.396362,-4.478607,-0.014954,1,1,1,1,1,95.000000
2020-07-10 14:47:59.346,,,,,,,,,,,,,,,,,,,,,,,,,,,,,,,,,,,,,,/muse/elements/jaw_clench
2020-07-10 14:47:59.614,2.123442032495064,1.729445815799356,1.640293239985813,1.722312909648337,0.9084212840638454,1.173257306425877,0.7577873969150682,0.7266364941828919,0.9359439101538348,1.195345148950432,1.049161674921324,1.064943042056172,0.9205045634608952,1.1719947964818,1.110263424245158,1.132777119211892,0.8404658416924424,1.077669834829853,1.887530383221414,0.4868553350329278,766.7765567765568,853.0036630036631,970.6593406593407,745.4212454212454,943.6630036630037,0.019531,0.090088,0.999756,4.800110,-4.912262,-0.867310,1,1,1,1,1,95.000000
2020-07-10 14:47:59.755,,,,,,,,,,,,,,,,,,,,,,,,,,,,,,,,,,,,,,/muse/elements/jaw_clench
2020-07-10 14:48:00.117,2.123442032495064,1.729445815799356,1.640293239985813,1.722312909648337,0.9084212840638454,1.173257306425877,0.7577873969150682,0.7266364941828919,0.9359439101538348,1.195345148950432,1.049161674921324,1.064943042056172,0.9205045634608952,1.1719947964818,1.110263424245158,1.132777119211892,0.8404658416924424,1.077669834829853,1.887530383221414,0.4868553350329278,738.974358974359,674.1025641025641,773.6263736263736,718.8278388278388,684.5787545787546,0.010620,0.093811,0.996460,4.284210,-1.547699,-0.702820,1,1,1,1,1,95.000000
2020-07-10 14:48:00.390,,,,,,,,,,,,,,,,,,,,,,,,,,,,,,,,,,,,,,/muse/elements/blink
2020-07-10 14:48:00.618,2.123442032495064,1.729445815799356,1.640293239985813,1.722312909648337,0.9084212840638454,1.173257306425877,0.7577873969150682,0.7266364941828919,0.9359439101538348,1.195345148950432,1.049161674921324,1.064943042056172,0.9205045634608952,1.1719947964818,1.110263424245158,1.132777119211892,0.8404658416924424,1.077669834829853,1.887530383221414,0.4868553350329278,855.4212454212454,599.5604395604396,958.1684981684982,848.5714285714286,663.6263736263736,0.014709,0.096985,0.995300,5.428162,-2.377625,-0.471039,1,1,1,1,1,95.000000
2020-07-10 14:48:00.669,,,,,,,,,,,,,,,,,,,,,,,,,,,,,,,,,,,,,,/muse/elements/jaw_clench
2020-07-10 14:48:01.013,,,,,,,,,,,,,,,,,,,,,,,,,,,,,,,,,,,,,,/muse/elements/blink
2020-07-10 14:48:01.013,,,,,,,,,,,,,,,,,,,,,,,,,,,,,,,,,,,,,,/muse/elements/jaw_clench
2020-07-10 14:48:01.117,2.123442032495064,1.729445815799356,1.640293239985813,1.722312909648337,0.9084212840638454,1.173257306425877,0.7577873969150682,0.7266364941828919,0.9359439101538348,1.195345148950432,1.049161674921324,1.064943042056172,0.9205045634608952,1.1719947964818,1.110263424245158,1.132777119211892,0.8404658416924424,1.077669834829853,1.887530383221414,0.4868553350329278,897.3260073260074,1093.150183150183,1110.07326007326,926.3369963369963,966.6300366300367,-0.042480,0.143494,0.993652,1.689758,-2.175751,0.568237,1,1,1,1,1,95.000000
2020-07-10 14:48:01.610,2.123442032495064,1.729445815799356,1.640293239985813,1.722312909648337,0.9084212840638454,1.173257306425877,0.7577873969150682,0.7266364941828919,0.9359439101538348,1.195345148950432,1.049161674921324,1.064943042056172,0.9205045634608952,1.1719947964818,1.110263424245158,1.132777119211892,0.8404658416924424,1.077669834829853,1.887530383221414,0.4868553350329278,680.5494505494506,637.8388278388279,640.2564102564103,732.9304029304029,1030.695970695971,-0.078796,0.094543,0.982544,-5.091705,1.330872,0.336456,1,2,1,1,2,95.000000
2020-07-10 14:48:02.111,2.123442032495064,1.729445815799356,1.640293239985813,1.722312909648337,0.9084212840638454,1.173257306425877,0.7577873969150682,0.7266364941828919,0.9359439101538348,1.195345148950432,1.049161674921324,1.064943042056172,0.9205045634608952,1.1719947964818,1.110263424245158,1.132777119211892,0.8404658416924424,1.077669834829853,1.887530383221414,0.4868553350329278,727.2893772893773,677.7289377289377,849.7802197802198,744.6153846153846,760.3296703296703,-0.100769,0.049988,0.994751,2.033691,-4.082336,-4.673004,1,2,1,1,2,95.000000
2020-07-10 14:48:02.415,,,,,,,,,,,,,,,,,,,,,,,,,,,,,,,,,,,,,,/muse/elements/jaw_clench
2020-07-10 14:48:02.610,2.123442032495064,1.729445815799356,1.640293239985813,1.722312909648337,0.9084212840638454,1.173257306425877,0.7577873969150682,0.7266364941828919,0.9359439101538348,1.195345148950432,1.049161674921324,1.064943042056172,0.9205045634608952,1.1719947964818,1.110263424245158,1.132777119211892,0.8404658416924424,1.077669834829853,1.887530383221414,0.4868553350329278,753.0769230769231,800.6227106227107,924.3223443223443,619.3040293040293,851.3919413919414,-0.068176,0.035522,1.003784,2.654266,-8.441315,-1.742096,1,2,1,1,2,95.000000
2020-07-10 14:48:03.110,1.616183426592751,1.729445815799356,1.640293239985813,1.722312909648337,0.5546447022185549,1.173257306425877,0.7577873969150682,0.7266364941828919,0.8315093746139141,1.195345148950432,1.049161674921324,1.064943042056172,0.7619479036602628,1.1719947964818,1.110263424245158,1.132777119211892,0.4325230031308125,1.077669834829853,1.887530383221414,0.4868553350329278,813.919413919414,771.6117216117216,1019.413919413919,778.4615384615385,799.0109890109891,0.020386,-0.016968,1.002747,0.456085,-11.095581,-1.278534,1,1,1,1,1,95.000000
2020-07-10 14:48:03.619,2.013197563314273,1.729445815799356,1.640293239985813,1.722312909648337,0.5848310237932338,1.173257306425877,0.7577873969150682,0.7266364941828919,0.8460023159791898,1.195345148950432,1.049161674921324,1.064943042056172,0.887837828784958,1.1719947964818,1.110263424245158,1.132777119211892,0.4713947420035619,1.077669834829853,1.887530383221414,0.4868553350329278,630.989010989011,0,660.8058608058608,592.7106227106227,529.047619047619,0.015015,-0.036865,0.994690,10.646973,4.373932,-0.755157,1,1,1,1,1,95.000000
2020-07-10 14:48:03.716,,,,,,,,,,,,,,,,,,,,,,,,,,,,,,,,,,,,,,/muse/elements/jaw_clench
2020-07-10 14:48:03.910,,,,,,,,,,,,,,,,,,,,,,,,,,,,,,,,,,,,,,/muse/elements/blink
2020-07-10 14:48:04.114,2.057410902803107,1.729445815799356,1.640293239985813,1.722312909648337,0.6055129609305138,1.173257306425877,0.7577873969150682,0.7266364941828919,0.8438613538259904,1.195345148950432,1.049161674921324,1.064943042056172,0.9164413248051908,1.1719947964818,1.110263424245158,1.132777119211892,0.4880720299046998,1.077669834829853,1.887530383221414,0.4868553350329278,695.0549450549451,1122.161172161172,666.8498168498169,595.934065934066,858.6446886446887,0.001953,0.135010,0.998474,9.876862,-11.701202,11.858215,1,1,1,1,1,95.000000
2020-07-10 14:48:04.212,,,,,,,,,,,,,,,,,,,,,,,,,,,,,,,,,,,,,,/muse/elements/jaw_clench
2020-07-10 14:48:04.610,2.240023874713023,1.729445815799356,1.640293239985813,1.722312909648337,0.6609299814190359,1.173257306425877,0.7577873969150682,0.7266364941828919,0.7598111797304941,1.195345148950432,1.049161674921324,1.064943042056172,1.0317729497656,1.1719947964818,1.110263424245158,1.132777119211892,0.5257683861969484,1.077669834829853,1.887530383221414,0.4868553350329278,766.3736263736264,1081.062271062271,930.7692307692308,778.8644688644689,796.5934065934066,0.033264,0.122986,0.982422,2.871094,-5.465546,-0.186920,1,1,4,4,1,95.000000
2020-07-10 14:48:05.110,2.360890283671091,1.729445815799356,1.640293239985813,1.722312909648337,0.534639689287948,1.173257306425877,0.7577873969150682,0.7266364941828919,0.6567332258710586,1.195345148950432,1.049161674921324,1.064943042056172,1.012866504017749,1.1719947964818,1.110263424245158,1.132777119211892,0.5272207275421246,1.077669834829853,1.887530383221414,0.4868553350329278,774.4322344322345,942.8571428571429,961.3919413919414,784.5054945054945,688.6080586080586,0.025085,0.127625,1.002014,2.385101,-4.269257,-5.069275,1,1,1,1,1,95.000000
2020-07-10 14:48:05.624,2.360890283671091,1.729445815799356,1.640293239985813,1.722312909648337,0.534639689287948,1.173257306425877,0.7577873969150682,0.7266364941828919,0.6567332258710586,1.195345148950432,1.049161674921324,1.064943042056172,1.012866504017749,1.1719947964818,1.110263424245158,1.132777119211892,0.5272207275421246,1.077669834829853,1.887530383221414,0.4868553350329278,817.5457875457876,1576.666666666667,1068.974358974359,813.919413919414,834.4688644688645,-0.029114,-0.006958,1.009033,0.209351,-3.925323,-5.996399,1,1,4,4,1,95.000000
2020-07-10 14:48:05.631,,,,,,,,,,,,,,,,,,,,,,,,,,,,,,,,,,,,,,/muse/elements/blink
2020-07-10 14:48:06.116,2.360890283671091,1.729445815799356,1.640293239985813,1.722312909648337,0.534639689287948,1.173257306425877,0.7577873969150682,0.7266364941828919,0.6567332258710586,1.195345148950432,1.049161674921324,1.064943042056172,1.012866504017749,1.1719947964818,1.110263424245158,1.132777119211892,0.5272207275421246,1.077669834829853,1.887530383221414,0.4868553350329278,811.9047619047619,860.2564102564103,992.4175824175825,836.0805860805862,655.1648351648352,-0.025269,0.001465,1.005615,4.643097,-4.598236,-0.598145,1,1,4,2,1,95.000000
2020-07-10 14:48:06.610,2.360890283671091,1.729445815799356,1.640293239985813,1.722312909648337,0.534639689287948,1.173257306425877,0.7577873969150682,0.7266364941828919,0.6567332258710586,1.195345148950432,1.049161674921324,1.064943042056172,1.012866504017749,1.1719947964818,1.110263424245158,1.132777119211892,0.5272207275421246,1.077669834829853,1.887530383221414,0.4868553350329278,764.3589743589744,772.8205128205128,878.7912087912089,757.1062271062272,790.5494505494506,-0.010620,-0.009216,1.002197,4.142151,-6.908569,-3.132782,1,2,2,1,2,95.000000
2020-07-10 14:48:07.110,2.360890283671091,1.729445815799356,1.640293239985813,1.722312909648337,0.534639689287948,1.173257306425877,0.7577873969150682,0.7266364941828919,0.6567332258710586,1.195345148950432,1.049161674921324,1.064943042056172,1.012866504017749,1.1719947964818,1.110263424245158,1.132777119211892,0.5272207275421246,1.077669834829853,1.887530383221414,0.4868553350329278,788.9377289377289,945.6776556776557,922.7106227106227,819.1575091575091,636.2271062271062,0.010010,-0.003235,1.002380,4.261780,-5.375824,-0.717773,1,2,1,1,2,95.000000
2020-07-10 14:48:07.203,,,,,,,,,,,,,,,,,,,,,,,,,,,,,,,,,,,,,,/muse/elements/jaw_clench
2020-07-10 14:48:07.610,1.293198493388851,1.729445815799356,1.640293239985813,1.292831061652749,0.4052291328392595,1.173257306425877,0.7577873969150682,0.8566860069455665,0.8845626081694007,1.195345148950432,1.049161674921324,1.08437244059391,1.093515590846535,1.1719947964818,1.110263424245158,1.119759339891212,0.8935194282663889,1.077669834829853,1.887530383221414,0.9165393540035827,934.7985347985348,924.3223443223443,1074.212454212454,938.021978021978,647.5091575091575,0.006714,0.006226,0.999939,6.415100,-2.691650,-1.016846,1,1,1,1,1,95.000000
2020-07-10 14:48:07.809,,,,,,,,,,,,,,,,,,,,,,,,,,,,,,,,,,,,,,/muse/elements/jaw_clench
2020-07-10 14:48:07.960,,,,,,,,,,,,,,,,,,,,,,,,,,,,,,,,,,,,,,/muse/elements/blink
2020-07-10 14:48:08.110,1.427159798495352,1.729445815799356,1.640293239985813,1.560060938666225,0.6064985702923557,1.173257306425877,0.7577873969150682,0.8998732874057235,0.9690582781547719,1.195345148950432,1.049161674921324,1.085482030898872,1.076874564403593,1.1719947964818,1.110263424245158,1.119390841289869,0.8920035676266664,1.077669834829853,1.887530383221414,0.8719647754091316,1258.351648351648,1222.087912087912,1278.498168498169,1318.388278388278,715.2014652014652,0.002014,0.055115,1.019226,11.260071,-0.082245,6.587067,1,1,1,1,1,95.000000
2020-07-10 14:48:08.153,,,,,,,,,,,,,,,,,,,,,,,,,,,,,,,,,,,,,,/muse/elements/blink
2020-07-10 14:48:08.153,,,,,,,,,,,,,,,,,,,,,,,,,,,,,,,,,,,,,,/muse/elements/jaw_clench
2020-07-10 14:48:08.619,1.468695704834726,1.729445815799356,1.640293239985813,1.617663782855995,0.6748414029503775,1.173257306425877,0.7577873969150682,0.9247775585459845,0.9690582781547719,1.195345148950432,1.049161674921324,1.060554570255123,1.053110117232256,1.1719947964818,1.110263424245158,1.116396824483948,0.9436648303154078,1.077669834829853,1.887530383221414,0.8325667946676147,750.2564102564103,730.1098901098901,840.1098901098901,760.3296703296703,961.3919413919414,-0.093750,0.109436,0.980713,11.177826,12.493744,17.847137,1,1,1,1,1,95.000000
2020-07-10 14:48:08.912,,,,,,,,,,,,,,,,,,,,,,,,,,,,,,,,,,,,,,/muse/elements/blink
2020-07-10 14:48:09.118,1.525398936237571,1.729445815799356,1.640293239985813,1.753634775952473,0.8372512926178134,1.173257306425877,0.7577873969150682,1.036856626367256,0.9041869174560052,1.195345148950432,1.049161674921324,0.996605130355124,1.055193909155448,1.1719947964818,1.110263424245158,1.064294869118704,0.9873959785550388,1.077669834829853,1.887530383221414,0.7481140087444699,815.1282051282052,1209.194139194139,1031.501831501831,791.7582417582418,630.5860805860806,-0.142761,0.131409,0.949036,11.970367,-11.439514,-5.831909,1,1,1,1,1,90.000000
2020-07-10 14:48:09.613,1.525398936237571,1.729445815799356,1.640293239985813,1.753634775952473,0.8372512926178134,1.173257306425877,0.7577873969150682,1.036856626367256,0.9041869174560052,1.195345148950432,1.049161674921324,0.996605130355124,1.055193909155448,1.1719947964818,1.110263424245158,1.064294869118704,0.9873959785550388,1.077669834829853,1.887530383221414,0.7481140087444699,832.0512820512821,1033.919413919414,1199.120879120879,812.3076923076924,594.3223443223443,-0.017334,0.110413,0.995056,-5.988922,-11.970367,7.992706,1,1,4,1,1,90.000000
2020-07-10 14:48:10.121,1.525398936237571,1.729445815799356,1.640293239985813,1.753634775952473,0.8372512926178134,1.173257306425877,0.7577873969150682,1.036856626367256,0.9041869174560052,1.195345148950432,1.049161674921324,0.996605130355124,1.055193909155448,1.1719947964818,1.110263424245158,1.064294869118704,0.9873959785550388,1.077669834829853,1.887530383221414,0.7481140087444699,796.1904761904763,774.0293040293041,1032.307692307692,803.8461538461539,799.4139194139194,-0.011108,0.079407,0.992676,0.695343,-2.287903,6.467438,1,1,2,1,1,90.000000
2020-07-10 14:48:10.510,,,,,,,,,,,,,,,,,,,,,,,,,,,,,,,,,,,,,,/muse/elements/jaw_clench
2020-07-10 14:48:10.610,1.525398936237571,1.729445815799356,1.640293239985813,1.753634775952473,0.8372512926178134,1.173257306425877,0.7577873969150682,1.036856626367256,0.9041869174560052,1.195345148950432,1.049161674921324,0.996605130355124,1.055193909155448,1.1719947964818,1.110263424245158,1.064294869118704,0.9873959785550388,1.077669834829853,1.887530383221414,0.7481140087444699,721.2454212454213,906.996336996337,728.901098901099,633.4065934065934,772.8205128205128,0.037476,0.104919,0.995544,8.336639,-7.117920,-3.558960,1,2,2,1,2,90.000000
2020-07-10 14:48:10.833,,,,,,,,,,,,,,,,,,,,,,,,,,,,,,,,,,,,,,/muse/elements/blink
2020-07-10 14:48:11.110,1.525398936237571,1.729445815799356,1.640293239985813,1.753634775952473,0.8372512926178134,1.173257306425877,0.7577873969150682,1.036856626367256,0.9041869174560052,1.195345148950432,1.049161674921324,0.996605130355124,1.055193909155448,1.1719947964818,1.110263424245158,1.064294869118704,0.9873959785550388,1.077669834829853,1.887530383221414,0.7481140087444699,765.5677655677656,805.8608058608058,876.3736263736264,723.6630036630037,912.2344322344322,0.033081,0.076416,1.005981,4.127197,-1.525269,-2.467346,1,2,4,1,2,90.000000
2020-07-10 14:48:11.616,1.525398936237571,1.729445815799356,1.640293239985813,1.753634775952473,0.8372512926178134,1.173257306425877,0.7577873969150682,1.036856626367256,0.9041869174560052,1.195345148950432,1.049161674921324,0.996605130355124,1.055193909155448,1.1719947964818,1.110263424245158,1.064294869118704,0.9873959785550388,1.077669834829853,1.887530383221414,0.7481140087444699,786.1172161172161,763.956043956044,977.9120879120879,781.2820512820513,904.1758241758242,0.038208,0.105164,1.002014,3.372040,-5.465546,-0.568237,1,2,2,1,2,90.000000
2020-07-10 14:48:12.111,1.538540070176673,1.729445815799356,1.640293239985813,1.753634775952473,0.9702235083704688,1.173257306425877,0.7577873969150682,1.036856626367256,1.289556013832065,1.195345148950432,1.049161674921324,0.996605130355124,0.9986326671751251,1.1719947964818,1.110263424245158,1.064294869118704,0.7243357562906697,1.077669834829853,1.887530383221414,0.7481140087444699,684.981684981685,714.3956043956044,799.8168498168499,646.3003663003664,732.1245421245421,0.035156,0.129700,0.988953,0.560760,3.880463,11.992798,1,1,2,1,1,90.000000
2020-07-10 14:48:12.230,,,,,,,,,,,,,,,,,,,,,,,,,,,,,,,,,,,,,,/muse/elements/jaw_clench
2020-07-10 14:48:12.617,1.538540070176673,1.729445815799356,1.640293239985813,1.753634775952473,0.9702235083704688,1.173257306425877,0.7577873969150682,1.036856626367256,1.289556013832065,1.195345148950432,1.049161674921324,0.996605130355124,0.9986326671751251,1.1719947964818,1.110263424245158,1.064294869118704,0.7243357562906697,1.077669834829853,1.887530383221414,0.7481140087444699,788.1318681318681,806.6666666666667,1010.549450549451,743.4065934065934,699.0842490842491,0.024780,0.102112,0.992126,1.727142,-2.235565,-1.031799,1,1,4,1,1,90.000000
2020-07-10 14:48:13.056,,,,,,,,,,,,,,,,,,,,,,,,,,,,,,,,,,,,,,/muse/elements/blink
2020-07-10 14:48:13.114,1.595535220714036,1.729445815799356,1.640293239985813,1.753634775952473,0.9611185651663754,1.173257306425877,0.7577873969150682,1.036856626367256,1.2842513774846,1.195345148950432,1.049161674921324,0.996605130355124,1.004787692714464,1.1719947964818,1.110263424245158,1.064294869118704,0.7007888248025276,1.077669834829853,1.887530383221414,0.7481140087444699,796.5934065934066,1279.70695970696,934.3956043956044,800.6227106227107,1056.483516483516,0.078491,0.166687,1.035095,21.682739,-2.108459,-13.376007,1,1,2,1,1,90.000000
2020-07-10 14:48:13.464,,,,,,,,,,,,,,,,,,,,,,,,,,,,,,,,,,,,,,/muse/elements/blink
2020-07-10 14:48:13.610,1.595535220714036,1.729445815799356,1.640293239985813,1.753634775952473,0.9611185651663754,1.173257306425877,0.7577873969150682,1.036856626367256,1.2842513774846,1.195345148950432,1.049161674921324,0.996605130355124,1.004787692714464,1.1719947964818,1.110263424245158,1.064294869118704,0.7007888248025276,1.077669834829853,1.887530383221414,0.7481140087444699,768.7912087912088,856.2271062271062,855.0183150183151,744.2124542124542,913.040293040293,0.032837,0.164490,1.002441,-2.100983,0.515900,1.719666,1,1,4,2,1,90.000000
2020-07-10 14:48:14.118,1.595535220714036,1.729445815799356,1.640293239985813,1.753634775952473,0.9611185651663754,1.173257306425877,0.7577873969150682,1.036856626367256,1.2842513774846,1.195345148950432,1.049161674921324,0.996605130355124,1.004787692714464,1.1719947964818,1.110263424245158,1.064294869118704,0.7007888248025276,1.077669834829853,1.887530383221414,0.7481140087444699,946.4835164835165,891.2820512820513,1160.842490842491,917.0695970695971,683.7728937728938,0.021851,0.083801,0.997131,5.114136,-4.396362,-9.338531,1,1,2,2,1,90.000000
2020-07-10 14:48:14.257,,,,,,,,,,,,,,,,,,,,,,,,,,,,,,,,,,,,,,/muse/elements/blink
2020-07-10 14:48:14.615,1.595535220714036,1.729445815799356,1.640293239985813,1.753634775952473,0.9611185651663754,1.173257306425877,0.7577873969150682,1.036856626367256,1.2842513774846,1.195345148950432,1.049161674921324,0.996605130355124,1.004787692714464,1.1719947964818,1.110263424245158,1.064294869118704,0.7007888248025276,1.077669834829853,1.887530383221414,0.7481140087444699,855.0183150183151,904.5787545787546,1039.96336996337,810.6959706959707,863.4798534798535,-0.004578,0.119019,0.983459,4.314117,3.723450,-10.475006,1,1,4,2,1,90.000000
2020-07-10 14:48:15.111,1.595535220714036,1.729445815799356,1.640293239985813,1.753634775952473,0.9611185651663754,1.173257306425877,0.7577873969150682,1.036856626367256,1.2842513774846,1.195345148950432,1.049161674921324,0.996605130355124,1.004787692714464,1.1719947964818,1.110263424245158,1.064294869118704,0.7007888248025276,1.077669834829853,1.887530383221414,0.7481140087444699,937.2161172161173,936.8131868131868,943.2600732600733,930.3663003663004,815.934065934066,-0.047791,0.062256,0.996338,5.734711,-2.624359,-2.908478,1,2,1,1,2,90.000000
2020-07-10 14:48:15.383,,,,,,,,,,,,,,,,,,,,,,,,,,,,,,,,,,,,,,/muse/elements/jaw_clench
2020-07-10 14:48:15.610,1.595535220714036,1.729445815799356,1.640293239985813,1.753634775952473,0.9611185651663754,1.173257306425877,0.7577873969150682,1.036856626367256,1.2842513774846,1.195345148950432,1.049161674921324,0.996605130355124,1.004787692714464,1.1719947964818,1.110263424245158,1.064294869118704,0.7007888248025276,1.077669834829853,1.887530383221414,0.7481140087444699,1625.018315018315,1610.512820512821,1618.168498168498,1625.421245421245,870.3296703296703,-0.007568,0.075806,1.006348,5.330963,-4.486084,-0.882263,1,2,1,1,2,90.000000
2020-07-10 14:48:15.617,,,,,,,,,,,,,,,,,,,,,,,,,,,,,,,,,,,,,,/muse/elements/blink
2020-07-10 14:48:16.092,,,,,,,,,,,,,,,,,,,,,,,,,,,,,,,,,,,,,,/muse/elements/blink
2020-07-10 14:48:16.110,1.595535220714036,1.729445815799356,1.640293239985813,1.753634775952473,0.9611185651663754,1.173257306425877,0.7577873969150682,1.036856626367256,1.2842513774846,1.195345148950432,1.049161674921324,0.996605130355124,1.004787692714464,1.1719947964818,1.110263424245158,1.064294869118704,0.7007888248025276,1.077669834829853,1.887530383221414,0.7481140087444699,725.6776556776557,915.4578754578755,890.0732600732601,714.3956043956044,1091.941391941392,-0.006714,0.074036,0.990784,3.401947,-4.882355,2.624359,1,2,4,2,2,90.000000
2020-07-10 14:48:16.520,,,,,,,,,,,,,,,,,,,,,,,,,,,,,,,,,,,,,,/muse/elements/jaw_clench
2020-07-10 14:48:16.622,1.595535220714036,1.729445815799356,1.640293239985813,1.753634775952473,0.9611185651663754,1.173257306425877,0.7577873969150682,1.036856626367256,1.2842513774846,1.195345148950432,1.049161674921324,0.996605130355124,1.004787692714464,1.1719947964818,1.110263424245158,1.064294869118704,0.7007888248025276,1.077669834829853,1.887530383221414,0.7481140087444699,714.7985347985348,722.8571428571429,874.3589743589744,689.0109890109891,832.0512820512821,0.026428,0.061523,0.999084,4.949646,-5.129089,-0.650482,1,2,1,1,2,90.000000
2020-07-10 14:48:17.116,1.595535220714036,1.729445815799356,1.640293239985813,1.753634775952473,0.9611185651663754,1.173257306425877,0.7577873969150682,1.036856626367256,1.2842513774846,1.195345148950432,1.049161674921324,0.996605130355124,1.004787692714464,1.1719947964818,1.110263424245158,1.064294869118704,0.7007888248025276,1.077669834829853,1.887530383221414,0.7481140087444699,741.7948717948718,721.6483516483516,897.7289377289378,733.7362637362637,662.4175824175825,0.053711,0.065308,0.998962,4.067383,-4.785156,0.530853,1,2,1,1,2,90.000000
2020-07-10 14:48:17.211,,,,,,,,,,,,,,,,,,,,,,,,,,,,,,,,,,,,,,/muse/elements/jaw_clench
2020-07-10 14:48:17.610,1.595535220714036,1.729445815799356,1.640293239985813,1.753634775952473,0.9611185651663754,1.173257306425877,0.7577873969150682,1.036856626367256,1.2842513774846,1.195345148950432,1.049161674921324,0.996605130355124,1.004787692714464,1.1719947964818,1.110263424245158,1.064294869118704,0.7007888248025276,1.077669834829853,1.887530383221414,0.7481140087444699,790.952380952381,788.5347985347986,894.1025641025641,775.2380952380953,1070.989010989011,0.056091,0.064819,0.985840,3.977661,-5.286102,-1.884155,1,2,1,1,2,90.000000
2020-07-10 14:48:17.707,,,,,,,,,,,,,,,,,,,,,,,,,,,,,,,,,,,,,,/muse/elements/jaw_clench
2020-07-10 14:48:18.111,1.511478005464763,1.729445815799356,1.640293239985813,1.593724298436515,0.4958779524887047,1.173257306425877,0.7577873969150682,0.4483577190282318,0.5588304086920444,1.195345148950432,1.049161674921324,0.9983796624183459,0.9370658537680552,1.1719947964818,1.110263424245158,0.8863460281778408,0.6598737371267703,1.077669834829853,1.887530383221414,0.5404792959658565,838.901098901099,818.7545787545788,880.8058608058608,863.8827838827839,607.2161172161173,0.053467,0.070740,1.002808,4.344025,-4.658051,-0.403748,1,1,2,1,1,90.000000
2020-07-10 14:48:18.244,,,,,,,,,,,,,,,,,,,,,,,,,,,,,,,,,,,,,,/muse/elements/jaw_clench
2020-07-10 14:48:18.439,,,,,,,,,,,,,,,,,,,,,,,,,,,,,,,,,,,,,,/muse/elements/jaw_clench
2020-07-10 14:48:18.610,1.968373036750112,1.729445815799356,1.640293239985813,1.593724298436515,0.6192734361734016,1.173257306425877,0.7577873969150682,0.4483577190282318,0.7762329775367667,1.195345148950432,1.049161674921324,0.9983796624183459,0.97281347187916,1.1719947964818,1.110263424245158,0.8863460281778408,0.7831499427295187,1.077669834829853,1.887530383221414,0.5404792959658565,883.2234432234433,856.2271062271062,954.5421245421246,876.7765567765568,709.5604395604396,0.053406,0.072571,0.998474,4.134674,-3.499146,0.179443,1,1,1,4,1,90.000000
2020-07-10 14:48:18.763,,,,,,,,,,,,,,,,,,,,,,,,,,,,,,,,,,,,,,/muse/elements/jaw_clench
2020-07-10 14:48:18.938,,,,,,,,,,,,,,,,,,,,,,,,,,,,,,,,,,,,,,/muse/elements/jaw_clench
2020-07-10 14:48:19.113,2.039728805801382,1.729445815799356,1.640293239985813,1.694507056223929,0.6195504976908461,1.173257306425877,0.7577873969150682,0.2949992892334224,0.748772903222798,1.195345148950432,1.049161674921324,0.9980856290980596,0.9862510956183629,1.1719947964818,1.110263424245158,0.9121646332795321,0.8148395674289902,1.077669834829853,1.887530383221414,0.4870181427432362,790.1465201465202,728.4981684981685,776.0439560439561,775.6410256410256,1064.542124542125,0.048035,0.055176,1.009949,-1.510315,-0.134583,2.706604,1,1,1,4,1,95.000000
2020-07-10 14:48:19.290,,,,,,,,,,,,,,,,,,,,,,,,,,,,,,,,,,,,,,/muse/elements/jaw_clench
2020-07-10 14:48:19.463,,,,,,,,,,,,,,,,,,,,,,,,,,,,,,,,,,,,,,/muse/elements/blink
2020-07-10 14:48:19.463,,,,,,,,,,,,,,,,,,,,,,,,,,,,,,,,,,,,,,/muse/elements/jaw_clench
2020-07-10 14:48:19.610,2.219019970548961,1.729445815799356,1.640293239985813,1.694507056223929,0.7321451610441099,1.173257306425877,0.7577873969150682,0.2949992892334224,0.7011881142972962,1.195345148950432,1.049161674921324,0.9980856290980596,1.012155577657453,1.1719947964818,1.110263424245158,0.9121646332795321,0.8959385724128167,1.077669834829853,1.887530383221414,0.4870181427432362,787.3260073260074,861.8681318681319,705.1282051282052,761.1355311355312,660.8058608058608,0.001709,0.012207,1.000122,3.723450,-3.962708,-2.983246,1,1,1,4,1,95.000000
2020-07-10 14:48:20.113,2.253675792195788,1.729445815799356,1.640293239985813,1.694507056223929,0.770259386348516,1.173257306425877,0.7577873969150682,0.2949992892334224,0.6988874708722316,1.195345148950432,1.049161674921324,0.9980856290980596,1.012795352571127,1.1719947964818,1.110263424245158,0.9121646332795321,0.8794719160610908,1.077669834829853,1.887530383221414,0.4870181427432362,804.6520146520147,813.5164835164835,981.1355311355312,782.4908424908425,684.981684981685,0.018311,0.014526,1.006714,4.463654,-4.844971,-0.732727,1,1,1,1,1,95.000000
2020-07-10 14:48:20.253,,,,,,,,,,,,,,,,,,,,,,,,,,,,,,,,,,,,,,/muse/elements/jaw_clench
2020-07-10 14:48:20.511,,,,,,,,,,,,,,,,,,,,,,,,,,,,,,,,,,,,,,/muse/elements/jaw_clench
2020-07-10 14:48:20.612,2.253675792195788,1.729445815799356,1.640293239985813,1.694507056223929,0.770259386348516,1.173257306425877,0.7577873969150682,0.2949992892334224,0.6988874708722316,1.195345148950432,1.049161674921324,0.9980856290980596,1.012795352571127,1.1719947964818,1.110263424245158,0.9121646332795321,0.8794719160610908,1.077669834829853,1.887530383221414,0.4870181427432362,788.5347985347986,822.7838827838829,885.2380952380953,783.2967032967033,1186.227106227106,-0.013367,-0.000610,0.998718,-0.179443,-2.594452,9.817047,1,1,1,2,1,95.000000
2020-07-10 14:48:20.667,,,,,,,,,,,,,,,,,,,,,,,,,,,,,,,,,,,,,,/muse/elements/jaw_clench
2020-07-10 14:48:20.968,,,,,,,,,,,,,,,,,,,,,,,,,,,,,,,,,,,,,,/muse/elements/jaw_clench
2020-07-10 14:48:21.110,1.322373853643493,1.729445815799356,1.640293239985813,1.694507056223929,0.8831679045786484,1.173257306425877,0.7577873969150682,0.2949992892334224,0.6134942798600728,1.195345148950432,1.049161674921324,0.9980856290980596,1.024440001650323,1.1719947964818,1.110263424245158,0.9121646332795321,0.5279121083173668,1.077669834829853,1.887530383221414,0.4870181427432362,863.0769230769231,909.8168498168499,799.4139194139194,858.6446886446887,687.3992673992674,-0.029907,-0.004761,1.000183,4.934692,-3.940277,-0.433655,1,1,1,1,1,95.000000
2020-07-10 14:48:21.184,,,,,,,,,,,,,,,,,,,,,,,,,,,,,,,,,,,,,,/muse/elements/jaw_clench
2020-07-10 14:48:21.610,1.51740549528359,1.729445815799356,1.640293239985813,1.614549521974465,0.8480761627273745,1.173257306425877,0.7577873969150682,0.9597462881714875,0.737998480251673,1.195345148950432,1.049161674921324,1.166137308493914,0.9145847836936705,1.1719947964818,1.110263424245158,0.8272777965894056,0.6320262559480353,1.077669834829853,1.887530383221414,0.8456024031598203,821.1721611721612,837.2893772893773,945.2747252747253,808.6813186813187,689.0109890109891,-0.028625,0.017517,0.998413,10.452576,-2.459869,-2.213135,1,1,1,2,1,95.000000
2020-07-10 14:48:21.787,,,,,,,,,,,,,,,,,,,,,,,,,,,,,,,,,,,,,,/muse/elements/jaw_clench
2020-07-10 14:48:21.979,,,,,,,,,,,,,,,,,,,,,,,,,,,,,,,,,,,,,,/muse/elements/jaw_clench
2020-07-10 14:48:22.110,1.56023543933679,1.729445815799356,1.640293239985813,1.656014256018698,0.8047671384776935,1.173257306425877,0.7577873969150682,0.9510042099496643,0.7543151701754144,1.195345148950432,1.049161674921324,1.166137308493914,0.8567203824404971,1.1719947964818,1.110263424245158,0.8622213631040085,0.5802685584348644,1.077669834829853,1.887530383221414,0.7838647011279665,816.7399267399268,797.3992673992674,777.2527472527473,796.5934065934066,880,-0.029602,0.055054,1.010925,9.794617,-4.463654,0.971985,1,1,1,1,1,95.000000
2020-07-10 14:48:22.501,,,,,,,,,,,,,,,,,,,,,,,,,,,,,,,,,,,,,,/muse/elements/jaw_clench
2020-07-10 14:48:22.627,1.740256701790297,1.729445815799356,1.640293239985813,1.795997991184428,0.7788965238458359,1.173257306425877,0.7577873969150682,1.001455341242268,0.7643593786947792,1.195345148950432,1.049161674921324,1.165221263012054,0.7295463988612432,1.1719947964818,1.110263424245158,0.9098300314508591,0.5748327655420992,1.077669834829853,1.887530383221414,0.7101213244339603,977.9120879120879,1013.772893772894,1141.501831501831,999.6703296703297,802.6373626373627,-0.003357,0.086609,1.011841,6.587067,-4.665527,10.534821,1,1,1,1,1,95.000000
2020-07-10 14:48:23.004,,,,,,,,,,,,,,,,,,,,,,,,,,,,,,,,,,,,,,/muse/elements/jaw_clench
